#                                                     Thu Jun  9 00:52:52 2016
#          I------------------------------------------------------------------------------------------------------------------------I
#          I                                                                                                                        I
#          I      BC_GALAXEV  ---  MODEL PARAMETERS:   Generic file name for this model = bc2003_hr_xmiless_m22_kroup_ssp           I
#          I                                                                                                                        I
#          I      TRACKS: Padova (1994) + S. Charlot (1997). X=0.7696, Y=0.2303, Z=0.0001                                           I
#          I                                                                                                                        I
#          I      S.F.R.: SSP = Zero Length Burst at t = 0                                                                          I
#          I                                                                                                                        I
#          I                                                                                                                        I
#          I      I.M.F.: Power law ( 2 segments):                                                                                  I
#          I                                                                      mass in      number                               I
#          I                                              x   from m     to m     segment    of stars      c                        I
#          I                                           0.30     0.10     0.50      0.2668      1.1434  4.4891E-01                   I
#          I                                           1.30     0.50   100.00      0.7332      0.4247  2.2446E-01                   I
#          I                                                                                                                        I
#          I                                                           totals      1.0000      1.5681  0.6377 Mo/star               I
#          I                                                                                                                        I
#          I                                                                                                                        I
#          I                                                                                                                        I
#          I                                                                                                                        I
#          I      LISTED: Rest frame properties                                                                                     I
#          I                                                                                                                        I
#          I                                                                                                                        I
#          I                              (C) 1995-2015 G. Bruzual A. & S. Charlot - All Rights Reserved                            I
#          I------------------------------------------------------------------------------------------------------------------------I
#
#    (1)       (2)     (3)     (4)     (5)     (6)     (7)      (8)       (9)       (10)     (11)     (12)     (13)     (14)    (15)
#
# Index_No.   WO-1:   WO-2:   WO-3:   WO-4:   GC-1:   4000A   DTT-Ca1   DTT-Ca2   DTT-Ca3  DTT-MgI    DM-04    DM-04    DM-04     BH:
# log-age   HdeltaA HgammaA HdeltaF HgammaF D(4000)   B4_VN  CaII8498  CaII8542  CaII8662  MgI8807  H8_3889  H9_3835 H10_3798   BH-HK
#   (yr)       (A)     (A)     (A)     (A)      .       .        (A)       (A)       (A)      (A)      (A)      (A)      (A)      (A)
  5.000000    2.252   2.350   1.953   2.028   0.918   0.958     0.268     0.339     0.402    7.535    1.777    1.435    1.040   0.029
  5.149989    2.252   2.350   1.953   2.028   0.918   0.958     0.268     0.339     0.402    7.535    1.777    1.435    1.040   0.029
  5.200002    2.252   2.350   1.953   2.028   0.918   0.958     0.268     0.339     0.402    7.535    1.777    1.435    1.040   0.029
  5.250005    2.252   2.350   1.953   2.028   0.918   0.958     0.268     0.339     0.402    7.535    1.777    1.435    1.040   0.029
  5.300008    2.252   2.350   1.953   2.028   0.918   0.958     0.268     0.339     0.402    7.535    1.777    1.435    1.040   0.029
  5.349996    2.252   2.350   1.953   2.028   0.918   0.958     0.268     0.339     0.402    7.535    1.777    1.435    1.040   0.029
  5.400002    2.251   2.349   1.952   2.027   0.918   0.958     0.268     0.339     0.402    7.535    1.776    1.434    1.040   0.029
  5.450003    2.245   2.343   1.946   2.022   0.918   0.958     0.267     0.339     0.401    7.535    1.771    1.430    1.037   0.029
  5.500003    2.237   2.335   1.940   2.015   0.918   0.958     0.267     0.338     0.401    7.535    1.765    1.425    1.033   0.029
  5.550008    2.230   2.328   1.933   2.008   0.918   0.957     0.266     0.337     0.400    7.536    1.759    1.420    1.030   0.028
  5.600003    2.242   2.340   1.944   2.019   0.918   0.958     0.267     0.338     0.401    7.535    1.769    1.428    1.036   0.029
  5.650006    2.233   2.331   1.936   2.010   0.918   0.958     0.267     0.338     0.401    7.535    1.764    1.424    1.032   0.029
  5.700002    2.234   2.331   1.937   2.011   0.918   0.958     0.266     0.338     0.400    7.536    1.764    1.424    1.032   0.029
  5.749999    2.235   2.333   1.939   2.013   0.918   0.958     0.265     0.337     0.399    7.536    1.764    1.424    1.033   0.029
  5.800002    2.233   2.331   1.937   2.012   0.918   0.958     0.265     0.336     0.399    7.536    1.762    1.423    1.032   0.029
  5.850003    2.406   2.518   2.099   2.186   0.920   0.959     0.244     0.315     0.399    7.540    1.888    1.524    1.113   0.031
  5.900001    2.335   2.442   2.033   2.116   0.919   0.958     0.257     0.328     0.396    7.539    1.835    1.481    1.081   0.030
  5.950005    2.297   2.400   1.999   2.079   0.919   0.958     0.288     0.359     0.393    7.534    1.804    1.455    1.063   0.029
  6.000000    2.335   2.444   2.038   2.122   0.919   0.958     0.264     0.334     0.391    7.540    1.828    1.471    1.080   0.029
  6.019988    2.393   2.507   2.093   2.183   0.919   0.958     0.249     0.319     0.391    7.543    1.868    1.501    1.106   0.030
  6.040009    2.360   2.473   2.064   2.152   0.919   0.958     0.252     0.323     0.389    7.543    1.844    1.483    1.092   0.030
  6.060018    2.337   2.448   2.043   2.130   0.918   0.958     0.258     0.328     0.387    7.542    1.826    1.470    1.083   0.029
  6.080013    2.325   2.436   2.032   2.119   0.918   0.958     0.264     0.335     0.386    7.541    1.817    1.464    1.079   0.029
  6.099991    2.330   2.441   2.038   2.125   0.918   0.958     0.275     0.345     0.385    7.540    1.821    1.468    1.084   0.029
  6.120014    2.411   2.531   2.115   2.211   0.919   0.958     0.250     0.321     0.384    7.545    1.876    1.510    1.120   0.030
  6.140005    2.402   2.523   2.109   2.205   0.918   0.958     0.248     0.318     0.382    7.546    1.868    1.504    1.118   0.030
  6.159988    2.399   2.522   2.108   2.206   0.918   0.958     0.253     0.323     0.379    7.546    1.865    1.503    1.121   0.030
  6.180011    2.435   2.562   2.144   2.247   0.918   0.959     0.259     0.329     0.377    7.546    1.891    1.526    1.144   0.030
  6.200002    2.496   2.630   2.203   2.312   0.919   0.959     0.262     0.332     0.376    7.546    1.934    1.562    1.178   0.031
  6.220004    2.531   2.671   2.240   2.354   0.919   0.959     0.250     0.320     0.374    7.549    1.958    1.583    1.199   0.031
  6.240000    2.524   2.665   2.235   2.350   0.919   0.959     0.255     0.324     0.371    7.549    1.953    1.582    1.204   0.031
  6.260000    2.511   2.652   2.225   2.341   0.919   0.959     0.262     0.331     0.368    7.549    1.943    1.578    1.206   0.031
  6.280009    2.552   2.701   2.268   2.391   0.920   0.959     0.265     0.334     0.365    7.550    1.972    1.607    1.241   0.031
  6.300008    2.576   2.730   2.295   2.422   0.920   0.960     0.267     0.336     0.361    7.551    1.988    1.622    1.262   0.032
  6.320001    2.602   2.760   2.322   2.454   0.920   0.960     0.278     0.347     0.356    7.550    2.005    1.639    1.283   0.032
  6.340008    2.624   2.786   2.346   2.482   0.921   0.960     0.297     0.365     0.351    7.549    2.021    1.654    1.302   0.032
  6.360006    2.631   2.798   2.359   2.499   0.921   0.960     0.322     0.390     0.344    7.546    2.025    1.661    1.318   0.032
  6.379994    2.627   2.798   2.362   2.506   0.921   0.960     0.360     0.428     0.336    7.541    2.019    1.658    1.328   0.032
  6.400002    2.607   2.781   2.351   2.500   0.921   0.960     0.389     0.457     0.328    7.538    1.999    1.646    1.335   0.032
  6.420005    2.571   2.749   2.329   2.480   0.922   0.960     0.414     0.482     0.321    7.535    1.969    1.628    1.340   0.031
  6.439995    2.529   2.708   2.300   2.454   0.922   0.960     0.446     0.510     0.309    7.530    1.933    1.605    1.341   0.030
  6.459995    2.427   2.604   2.227   2.380   0.923   0.960     0.472     0.528     0.296    7.520    1.860    1.556    1.329   0.029
  6.480007    3.236   3.354   3.073   3.189   0.973   0.980     0.885     1.003     1.770    7.474    2.812    2.516    2.221   0.043
  6.500003    3.381   2.597   3.390   3.064   1.153   1.107     1.490     2.138     1.439    7.598    3.807    3.489    2.776   0.091
  6.519999    3.273   2.372   3.328   2.957   1.178   1.125     1.533     2.204     1.415    7.605    3.847    3.553    2.784   0.098
  6.540004    3.106   2.139   3.184   2.805   1.191   1.136     1.487     2.182     1.379    7.610    3.757    3.506    2.690   0.103
  6.560002    2.842   1.783   2.948   2.565   1.207   1.149     1.392     2.122     1.339    7.616    3.578    3.397    2.516   0.110
  6.580001    2.419   1.225   2.559   2.182   1.227   1.168     1.237     2.014     1.293    7.624    3.251    3.185    2.212   0.122
  6.600003    1.933   0.651   2.073   1.759   1.234   1.179     1.049     1.885     1.266    7.630    2.784    2.860    1.791   0.133
  6.620001    1.852   0.626   1.936   1.702   1.210   1.163     0.999     1.855     1.296    7.631    2.586    2.703    1.625   0.131
  6.640004    1.917   0.739   1.972   1.765   1.196   1.153     1.006     1.844     1.256    7.630    2.586    2.685    1.632   0.126
  6.660002    1.996   0.901   2.022   1.847   1.176   1.138     1.015     1.827     1.203    7.628    2.584    2.649    1.646   0.120
  6.680000    2.095   1.133   2.084   1.947   1.144   1.114     1.017     1.791     1.141    7.624    2.548    2.558    1.647   0.109
  6.700002    2.229   1.515   2.170   2.087   1.087   1.073     1.001     1.703     1.050    7.616    2.447    2.367    1.627   0.089
  6.720002    2.450   2.217   2.317   2.328   0.994   1.006     0.892     1.368     0.859    7.584    2.261    2.037    1.584   0.056
  6.739999    2.632   2.737   2.437   2.518   0.937   0.965     0.539     0.563     0.666    7.487    2.158    1.852    1.560   0.034
  6.760000    2.649   2.755   2.450   2.529   0.936   0.964     0.515     0.518     0.612    7.482    2.175    1.865    1.566   0.034
  6.780000    2.682   2.785   2.477   2.552   0.937   0.965     0.515     0.517     0.602    7.479    2.210    1.896    1.585   0.035
  6.800002    2.718   2.819   2.507   2.579   0.937   0.965     0.515     0.517     0.590    7.477    2.248    1.929    1.604   0.036
  6.819998    2.765   2.865   2.543   2.614   0.938   0.965     0.517     0.525     0.579    7.474    2.292    1.965    1.624   0.036
  6.839999    2.829   2.931   2.593   2.665   0.939   0.966     0.518     0.531     0.569    7.469    2.352    2.014    1.652   0.037
  6.860003    2.855   2.956   2.613   2.683   0.939   0.966     0.505     0.513     0.547    7.465    2.381    2.039    1.666   0.038
  6.880002    2.881   2.980   2.637   2.703   0.940   0.966     0.504     0.514     0.567    7.462    2.415    2.071    1.689   0.038
  6.900001    2.916   3.012   2.666   2.729   0.941   0.966     0.503     0.515     0.585    7.459    2.455    2.109    1.714   0.039
  6.919998    2.958   3.052   2.702   2.761   0.942   0.967     0.503     0.518     0.601    7.455    2.503    2.153    1.743   0.040
  6.939998    3.007   3.097   2.742   2.797   0.943   0.967     0.504     0.524     0.615    7.450    2.557    2.201    1.775   0.041
  6.960000    3.062   3.150   2.787   2.838   0.944   0.967     0.507     0.532     0.626    7.446    2.615    2.254    1.810   0.042
  6.979999    3.133   3.220   2.845   2.893   0.945   0.968     0.509     0.545     0.640    7.442    2.688    2.318    1.851   0.043
  7.000000    3.215   3.303   2.910   2.956   0.947   0.969     0.513     0.563     0.646    7.437    2.770    2.388    1.895   0.044
  7.019988    3.312   3.400   2.986   3.031   0.949   0.969     0.514     0.573     0.656    7.431    2.860    2.462    1.941   0.046
  7.040009    3.373   3.459   3.033   3.075   0.950   0.970     0.511     0.572     0.678    7.428    2.917    2.512    1.973   0.047
  7.060018    3.421   3.504   3.071   3.110   0.952   0.971     0.514     0.580     0.727    7.427    2.964    2.553    2.004   0.047
  7.080013    3.473   3.554   3.113   3.148   0.953   0.971     0.518     0.588     0.778    7.426    3.016    2.599    2.037   0.048
  7.099991    3.534   3.612   3.161   3.193   0.956   0.972     0.523     0.597     0.832    7.426    3.073    2.648    2.072   0.049
  7.119981    3.602   3.678   3.214   3.244   0.958   0.973     0.529     0.606     0.889    7.426    3.136    2.702    2.111   0.050
  7.140005    3.678   3.752   3.274   3.302   0.960   0.974     0.535     0.616     0.948    7.426    3.205    2.759    2.153   0.051
  7.159988    3.742   3.814   3.322   3.348   0.962   0.975     0.537     0.619     0.986    7.425    3.261    2.806    2.184   0.052
  7.180011    3.839   3.911   3.397   3.423   0.965   0.976     0.538     0.635     1.051    7.423    3.349    2.880    2.235   0.054
  7.200002    3.902   3.976   3.446   3.472   0.967   0.977     0.537     0.631     1.063    7.421    3.406    2.928    2.269   0.055
  7.220004    3.964   4.037   3.495   3.520   0.969   0.978     0.540     0.637     1.090    7.421    3.462    2.977    2.306   0.056
  7.240000    4.028   4.101   3.546   3.570   0.972   0.979     0.546     0.644     1.118    7.421    3.520    3.028    2.344   0.057
  7.260000    4.096   4.169   3.600   3.624   0.974   0.980     0.554     0.652     1.148    7.421    3.581    3.082    2.385   0.058
  7.280009    4.165   4.236   3.656   3.679   0.977   0.981     0.563     0.661     1.179    7.421    3.643    3.139    2.428   0.059
  7.300008    4.213   4.284   3.695   3.717   0.979   0.982     0.568     0.664     1.195    7.419    3.685    3.178    2.456   0.060
  7.320001    4.409   4.482   3.855   3.880   0.985   0.985     0.589     0.686     1.258    7.420    3.863    3.328    2.579   0.062
  7.340008    4.567   4.640   3.990   4.016   0.991   0.987     0.608     0.709     1.343    7.422    4.012    3.457    2.692   0.065
  7.360006    4.693   4.762   4.102   4.128   0.997   0.989     0.630     0.738     1.429    7.426    4.135    3.569    2.796   0.067
  7.379994    4.799   4.863   4.201   4.226   1.003   0.992     0.654     0.766     1.511    7.429    4.243    3.671    2.894   0.068
  7.400002    4.884   4.943   4.287   4.310   1.009   0.994     0.680     0.795     1.589    7.431    4.336    3.764    2.987   0.069
  7.420005    4.938   4.989   4.351   4.372   1.014   0.996     0.707     0.825     1.665    7.433    4.404    3.842    3.070   0.070
  7.439995    4.955   4.997   4.391   4.408   1.019   0.998     0.737     0.856     1.738    7.435    4.445    3.901    3.141   0.071
  7.462398    4.928   4.958   4.406   4.418   1.025   1.000     0.773     0.893     1.817    7.436    4.455    3.946    3.208   0.071
  7.477121    4.880   4.902   4.396   4.405   1.028   1.002     0.799     0.919     1.870    7.437    4.440    3.962    3.244   0.070
  7.491362    4.809   4.821   4.370   4.376   1.031   1.003     0.826     0.946     1.923    7.437    4.405    3.965    3.272   0.070
  7.505150    4.715   4.720   4.323   4.326   1.033   1.004     0.847     0.966     1.961    7.437    4.348    3.948    3.278   0.069
  7.518514    4.704   4.706   4.322   4.323   1.034   1.005     0.854     0.972     1.976    7.434    4.345    3.954    3.288   0.069
  7.531479    4.716   4.718   4.335   4.336   1.035   1.005     0.858     0.975     1.990    7.431    4.358    3.970    3.304   0.069
  7.544068    4.727   4.727   4.346   4.347   1.036   1.006     0.858     0.977     2.000    7.429    4.370    3.983    3.319   0.069
  7.556303    4.739   4.737   4.358   4.358   1.037   1.006     0.858     0.979     2.011    7.427    4.383    3.997    3.333   0.069
  7.568202    4.752   4.748   4.370   4.369   1.039   1.007     0.857     0.981     2.022    7.425    4.396    4.010    3.347   0.070
  7.579783    4.764   4.759   4.381   4.379   1.040   1.007     0.856     0.983     2.032    7.422    4.408    4.023    3.359   0.070
  7.591064    4.778   4.770   4.393   4.390   1.041   1.007     0.856     0.985     2.041    7.420    4.421    4.035    3.372   0.070
  7.602060    4.790   4.781   4.404   4.401   1.042   1.008     0.855     0.987     2.049    7.417    4.433    4.047    3.384   0.070
  7.628389    4.824   4.811   4.432   4.427   1.044   1.009     0.853     0.992     2.071    7.410    4.465    4.077    3.411   0.071
  7.653213    4.837   4.821   4.446   4.440   1.046   1.010     0.849     0.996     2.093    7.402    4.482    4.096    3.429   0.071
  7.676693    4.851   4.833   4.460   4.452   1.047   1.010     0.842     0.999     2.117    7.392    4.498    4.112    3.444   0.072
  7.698970    4.873   4.853   4.468   4.460   1.047   1.011     0.825     0.990     2.119    7.382    4.512    4.117    3.438   0.072
  7.720160    4.883   4.858   4.477   4.466   1.049   1.011     0.820     0.995     2.122    7.383    4.526    4.130    3.449   0.072
  7.740363    4.879   4.849   4.480   4.466   1.050   1.012     0.822     1.007     2.138    7.384    4.529    4.139    3.463   0.072
  7.756545    4.877   4.842   4.482   4.466   1.052   1.013     0.823     1.018     2.151    7.385    4.534    4.148    3.475   0.073
  7.806546    4.896   4.841   4.503   4.476   1.058   1.016     0.822     1.053     2.183    7.391    4.565    4.184    3.514   0.074
  7.856548    4.924   4.844   4.526   4.486   1.064   1.019     0.815     1.090     2.212    7.398    4.604    4.223    3.551   0.075
  7.906545    4.932   4.819   4.534   4.476   1.071   1.023     0.802     1.129     2.236    7.406    4.631    4.252    3.575   0.076
  7.956543    4.943   4.787   4.537   4.455   1.079   1.027     0.781     1.171     2.252    7.416    4.663    4.279    3.586   0.078
  8.006552    4.987   4.770   4.548   4.433   1.090   1.034     0.749     1.218     2.258    7.429    4.721    4.317    3.589   0.081
  8.056561    5.037   4.728   4.546   4.379   1.105   1.043     0.702     1.270     2.251    7.446    4.790    4.349    3.559   0.085
  8.106531    5.133   4.671   4.534   4.281   1.127   1.058     0.635     1.333     2.215    7.470    4.903    4.384    3.470   0.092
  8.156549    5.312   4.573   4.485   4.079   1.167   1.085     0.540     1.400     2.123    7.501    5.102    4.406    3.220   0.106
  8.206556    5.618   4.922   4.737   4.351   1.168   1.084     0.437     1.191     1.635    7.515    5.338    4.620    3.424   0.108
  8.256550    5.873   5.332   4.990   4.689   1.158   1.074     0.433     1.111     1.662    7.496    5.492    4.813    3.675   0.106
  8.306554    6.149   5.722   5.225   4.986   1.156   1.070     0.430     1.031     1.683    7.475    5.663    5.005    3.872   0.107
  8.356543    6.509   6.155   5.480   5.282   1.164   1.072     0.429     0.959     1.694    7.456    5.898    5.233    4.040   0.111
  8.406540    7.023   6.694   5.802   5.615   1.184   1.080     0.433     0.915     1.699    7.438    6.248    5.538    4.204   0.118
  8.456549    7.432   7.098   6.058   5.860   1.195   1.085     0.413     0.910     1.721    7.434    6.553    5.753    4.322   0.124
  8.506546    7.703   7.358   6.235   6.024   1.206   1.090     0.450     0.985     1.820    7.428    6.769    5.921    4.422   0.128
  8.556543    7.877   7.520   6.345   6.124   1.214   1.094     0.472     1.036     1.902    7.424    6.908    6.034    4.478   0.131
  8.606543    8.070   7.727   6.481   6.264   1.218   1.095     0.484     1.077     1.985    7.415    7.042    6.140    4.533   0.133
  8.656549    8.182   7.825   6.545   6.317   1.227   1.099     0.487     1.078     2.043    7.406    7.137    6.223    4.565   0.136
  8.706547    8.326   7.959   6.638   6.401   1.236   1.104     0.493     1.088     2.063    7.403    7.249    6.327    4.615   0.139
  8.756545    8.347   7.963   6.650   6.404   1.245   1.109     0.496     1.092     2.088    7.401    7.279    6.376    4.607   0.140
  8.806546    8.405   8.006   6.683   6.427   1.255   1.115     0.491     1.085     2.122    7.398    7.333    6.441    4.596   0.143
  8.856547    8.562   8.153   6.783   6.518   1.266   1.120     0.475     1.071     2.174    7.391    7.459    6.555    4.607   0.146
  8.906550    8.558   8.106   6.754   6.467   1.278   1.128     0.478     1.093     2.208    7.399    7.475    6.589    4.592   0.149
  8.956548    8.377   7.863   6.605   6.292   1.289   1.136     0.487     1.123     2.237    7.419    7.359    6.534    4.515   0.150
  9.006552    7.993   7.450   6.308   5.997   1.299   1.143     0.527     1.172     2.269    7.440    7.036    6.340    4.309   0.146
  9.056561    6.028   5.405   5.017   4.709   1.296   1.153     0.501     1.193     2.099    7.550    5.796    5.350    3.549   0.131
  9.106565    5.517   4.776   4.684   4.332   1.301   1.161     0.488     1.233     2.066    7.554    5.552    5.120    3.393   0.132
  9.156549    4.985   4.118   4.291   3.891   1.313   1.175     0.474     1.217     2.042    7.584    5.209    4.846    3.150   0.135
  9.206556    4.939   4.037   4.246   3.833   1.314   1.178     0.458     1.169     2.018    7.597    5.159    4.808    3.084   0.137
  9.225309    4.926   4.027   4.237   3.822   1.313   1.178     0.459     1.174     2.033    7.584    5.146    4.798    3.075   0.136
  9.230449    4.916   4.013   4.229   3.813   1.313   1.178     0.459     1.176     2.036    7.585    5.139    4.793    3.071   0.136
  9.255273    4.878   3.960   4.202   3.776   1.314   1.179     0.459     1.183     2.046    7.587    5.114    4.774    3.055   0.135
  9.278753    4.838   3.904   4.174   3.739   1.316   1.180     0.461     1.193     2.055    7.590    5.089    4.755    3.039   0.135
  9.301030    4.802   3.845   4.149   3.700   1.318   1.181     0.465     1.207     2.059    7.593    5.069    4.741    3.028   0.135
  9.322219    4.772   3.798   4.128   3.670   1.320   1.183     0.469     1.223     2.063    7.596    5.056    4.729    3.020   0.135
  9.342422    4.742   3.752   4.106   3.641   1.321   1.184     0.473     1.237     2.066    7.599    5.040    4.715    3.011   0.135
  9.361728    4.704   3.700   4.079   3.607   1.323   1.185     0.474     1.247     2.069    7.601    5.019    4.696    2.999   0.135
  9.380211    4.699   3.691   4.075   3.601   1.323   1.185     0.472     1.249     2.073    7.602    5.018    4.693    2.999   0.135
  9.397940    4.722   3.721   4.091   3.620   1.322   1.184     0.474     1.256     2.080    7.603    5.030    4.701    3.008   0.135
  9.414973    4.704   3.702   4.077   3.605   1.322   1.184     0.477     1.263     2.081    7.600    5.019    4.691    3.003   0.135
  9.439333    4.635   3.622   4.023   3.547   1.325   1.186     0.480     1.269     2.078    7.603    4.977    4.656    2.980   0.135
  9.477121    4.505   3.474   3.922   3.439   1.329   1.190     0.484     1.278     2.074    7.607    4.894    4.589    2.934   0.135
  9.511884    4.321   3.260   3.782   3.287   1.335   1.195     0.488     1.292     2.071    7.612    4.778    4.494    2.868   0.135
  9.544068    4.131   3.038   3.641   3.135   1.341   1.201     0.494     1.309     2.073    7.615    4.658    4.402    2.798   0.136
  9.574031    3.958   2.832   3.515   2.996   1.347   1.206     0.501     1.334     2.082    7.616    4.548    4.318    2.734   0.137
  9.602060    3.806   2.651   3.405   2.874   1.352   1.212     0.509     1.361     2.094    7.617    4.453    4.247    2.677   0.138
  9.628389    3.679   2.494   3.313   2.770   1.357   1.217     0.517     1.386     2.106    7.616    4.376    4.191    2.631   0.140
  9.653213    3.615   2.421   3.265   2.720   1.360   1.220     0.522     1.405     2.107    7.614    4.335    4.162    2.606   0.141
  9.676694    3.547   2.343   3.214   2.668   1.364   1.223     0.519     1.399     2.064    7.615    4.293    4.130    2.579   0.141
  9.698970    3.501   2.288   3.181   2.633   1.367   1.225     0.514     1.389     2.018    7.615    4.267    4.111    2.560   0.142
  9.720160    3.440   2.217   3.135   2.587   1.370   1.228     0.507     1.375     1.969    7.615    4.231    4.083    2.536   0.143
  9.740363    3.353   2.119   3.071   2.522   1.373   1.231     0.499     1.356     1.917    7.615    4.178    4.042    2.501   0.144
  9.759667    3.259   2.016   3.003   2.455   1.376   1.234     0.490     1.333     1.863    7.613    4.120    3.997    2.465   0.145
  9.778152    3.190   1.941   2.952   2.406   1.379   1.237     0.480     1.308     1.807    7.611    4.078    3.964    2.438   0.146
  9.795880    3.189   1.927   2.945   2.393   1.381   1.238     0.477     1.300     1.782    7.609    4.083    3.970    2.438   0.147
  9.812913    3.204   1.921   2.948   2.386   1.385   1.241     0.478     1.305     1.782    7.610    4.099    3.985    2.445   0.148
  9.829304    3.216   1.915   2.947   2.376   1.388   1.243     0.480     1.309     1.782    7.611    4.112    3.998    2.452   0.149
  9.845098    3.224   1.905   2.945   2.365   1.392   1.245     0.482     1.314     1.783    7.611    4.122    4.007    2.457   0.150
  9.860338    3.230   1.895   2.940   2.352   1.395   1.247     0.484     1.320     1.785    7.612    4.128    4.014    2.461   0.150
  9.875061    3.249   1.900   2.945   2.350   1.399   1.249     0.486     1.325     1.786    7.612    4.143    4.027    2.471   0.151
  9.889301    3.287   1.926   2.964   2.361   1.401   1.250     0.488     1.331     1.789    7.612    4.170    4.048    2.488   0.152
  9.903090    3.346   1.978   3.001   2.391   1.403   1.250     0.491     1.337     1.791    7.612    4.211    4.080    2.514   0.152
  9.916454    3.415   2.040   3.045   2.429   1.405   1.250     0.494     1.343     1.794    7.612    4.259    4.115    2.544   0.152
  9.929419    3.471   2.090   3.081   2.460   1.406   1.250     0.497     1.350     1.798    7.612    4.299    4.144    2.570   0.152
  9.942008    3.533   2.150   3.122   2.497   1.407   1.249     0.500     1.354     1.801    7.612    4.342    4.176    2.598   0.152
  9.954243    3.541   2.165   3.128   2.505   1.406   1.248     0.500     1.359     1.810    7.612    4.343    4.172    2.603   0.151
  9.966142    3.538   2.164   3.128   2.504   1.406   1.248     0.501     1.362     1.811    7.613    4.339    4.165    2.603   0.150
  9.977724    3.536   2.164   3.128   2.504   1.407   1.247     0.501     1.366     1.813    7.613    4.336    4.158    2.604   0.150
  9.989004    3.534   2.163   3.128   2.504   1.407   1.247     0.501     1.369     1.814    7.614    4.332    4.152    2.604   0.149
 10.000000    3.531   2.160   3.128   2.502   1.407   1.247     0.502     1.373     1.816    7.615    4.328    4.147    2.604   0.148
 10.010724    3.527   2.155   3.127   2.500   1.407   1.247     0.502     1.377     1.818    7.615    4.324    4.141    2.604   0.148
 10.021190    3.523   2.149   3.125   2.497   1.407   1.247     0.503     1.380     1.820    7.616    4.319    4.135    2.602   0.148
 10.031408    3.517   2.141   3.123   2.493   1.407   1.247     0.503     1.384     1.822    7.616    4.313    4.129    2.600   0.147
 10.041392    3.509   2.131   3.120   2.488   1.407   1.247     0.503     1.388     1.824    7.616    4.307    4.124    2.598   0.147
 10.051152    3.501   2.119   3.116   2.482   1.408   1.247     0.504     1.392     1.827    7.617    4.301    4.118    2.594   0.147
 10.060698    3.491   2.105   3.112   2.474   1.408   1.247     0.504     1.395     1.829    7.617    4.294    4.112    2.590   0.146
 10.070038    3.479   2.089   3.106   2.466   1.408   1.247     0.505     1.399     1.832    7.617    4.286    4.106    2.585   0.146
 10.079182    3.465   2.070   3.100   2.456   1.408   1.247     0.505     1.403     1.835    7.618    4.277    4.101    2.579   0.146
 10.088136    3.450   2.049   3.092   2.445   1.408   1.247     0.506     1.407     1.839    7.618    4.268    4.095    2.572   0.146
 10.096910    3.433   2.025   3.083   2.433   1.408   1.248     0.506     1.411     1.842    7.618    4.258    4.089    2.565   0.146
 10.105510    3.415   1.998   3.073   2.419   1.408   1.248     0.507     1.415     1.846    7.618    4.247    4.084    2.556   0.146
 10.113943    3.399   1.974   3.066   2.407   1.408   1.249     0.508     1.420     1.850    7.618    4.239    4.081    2.548   0.147
 10.122216    3.388   1.955   3.061   2.398   1.408   1.249     0.508     1.424     1.854    7.618    4.233    4.079    2.541   0.147
 10.130334    3.378   1.937   3.057   2.390   1.408   1.250     0.509     1.428     1.858    7.618    4.228    4.078    2.535   0.147
 10.138303    3.362   1.914   3.047   2.376   1.408   1.250     0.510     1.433     1.864    7.618    4.219    4.074    2.527   0.147
 10.146128    3.332   1.874   3.029   2.353   1.408   1.251     0.511     1.437     1.865    7.618    4.203    4.063    2.517   0.147
 10.153815    3.302   1.834   3.010   2.330   1.409   1.252     0.512     1.441     1.866    7.619    4.186    4.052    2.506   0.148
 10.161368    3.272   1.793   2.991   2.307   1.410   1.253     0.513     1.445     1.866    7.619    4.169    4.041    2.495   0.148
 10.168792    3.241   1.753   2.972   2.283   1.411   1.254     0.514     1.449     1.867    7.620    4.153    4.029    2.483   0.148
 10.176091    3.209   1.711   2.952   2.259   1.411   1.255     0.514     1.452     1.868    7.620    4.135    4.017    2.472   0.149
 10.183270    3.178   1.670   2.933   2.235   1.412   1.256     0.515     1.456     1.869    7.621    4.118    4.005    2.460   0.149
 10.190331    3.145   1.628   2.913   2.210   1.413   1.257     0.516     1.459     1.869    7.621    4.101    3.993    2.448   0.149
 10.197281    3.113   1.586   2.893   2.186   1.414   1.258     0.517     1.462     1.870    7.622    4.083    3.981    2.436   0.149
 10.204120    3.080   1.544   2.873   2.161   1.414   1.259     0.518     1.466     1.870    7.622    4.065    3.968    2.424   0.150
 10.210854    3.048   1.502   2.852   2.137   1.415   1.260     0.519     1.469     1.871    7.622    4.048    3.955    2.412   0.150
 10.217484    3.016   1.461   2.833   2.113   1.416   1.262     0.519     1.472     1.871    7.623    4.030    3.943    2.400   0.150
 10.224015    2.985   1.421   2.814   2.090   1.416   1.263     0.520     1.475     1.872    7.623    4.014    3.931    2.389   0.151
 10.230449    2.955   1.380   2.795   2.067   1.417   1.264     0.521     1.478     1.872    7.624    3.997    3.919    2.378   0.151
 10.236789    2.925   1.341   2.776   2.044   1.418   1.265     0.521     1.481     1.872    7.624    3.981    3.907    2.368   0.151
 10.243038    2.895   1.301   2.757   2.021   1.418   1.266     0.522     1.484     1.873    7.624    3.965    3.895    2.357   0.151
 10.249198    2.865   1.260   2.739   1.998   1.419   1.267     0.523     1.487     1.873    7.625    3.950    3.884    2.347   0.152
 10.255273    2.835   1.221   2.721   1.975   1.420   1.268     0.523     1.489     1.874    7.625    3.934    3.873    2.336   0.152
 10.261263    2.807   1.182   2.704   1.953   1.421   1.269     0.524     1.492     1.874    7.625    3.920    3.863    2.327   0.152
 10.267172    2.778   1.145   2.686   1.931   1.421   1.270     0.524     1.495     1.874    7.626    3.905    3.852    2.317   0.152
 10.273002    2.750   1.108   2.669   1.910   1.422   1.271     0.525     1.497     1.875    7.626    3.891    3.841    2.307   0.153
 10.278753    2.723   1.071   2.652   1.889   1.423   1.272     0.526     1.500     1.875    7.627    3.877    3.831    2.298   0.153
 10.284431    2.695   1.035   2.636   1.868   1.423   1.272     0.526     1.503     1.875    7.627    3.863    3.820    2.289   0.153
 10.290034    2.669   1.000   2.619   1.848   1.424   1.273     0.527     1.505     1.876    7.627    3.849    3.809    2.280   0.153
 10.295568    2.643   0.966   2.603   1.828   1.424   1.274     0.527     1.508     1.876    7.627    3.836    3.799    2.272   0.153
 10.301030    2.617   0.933   2.588   1.809   1.425   1.275     0.528     1.511     1.877    7.628    3.823    3.788    2.263   0.153
