#                                                     Thu Jun  9 00:55:43 2016
#          I------------------------------------------------------------------------------------------------------------------------I
#          I                                                                                                                        I
#          I      BC_GALAXEV  ---  MODEL PARAMETERS:   Generic file name for this model = bc2003_hr_xmiless_m32_kroup_ssp           I
#          I                                                                                                                        I
#          I      TRACKS: Padova (1994) + S. Charlot (1997). X=0.7686, Y=0.231, Z=0.0004                                            I
#          I                                                                                                                        I
#          I      S.F.R.: SSP = Zero Length Burst at t = 0                                                                          I
#          I                                                                                                                        I
#          I                                                                                                                        I
#          I      I.M.F.: Power law ( 2 segments):                                                                                  I
#          I                                                                      mass in      number                               I
#          I                                              x   from m     to m     segment    of stars      c                        I
#          I                                           0.30     0.10     0.50      0.2668      1.1434  4.4891E-01                   I
#          I                                           1.30     0.50   100.00      0.7332      0.4247  2.2446E-01                   I
#          I                                                                                                                        I
#          I                                                           totals      1.0000      1.5681  0.6377 Mo/star               I
#          I                                                                                                                        I
#          I                                                                                                                        I
#          I                                                                                                                        I
#          I                                                                                                                        I
#          I      LISTED: Rest frame properties                                                                                     I
#          I                                                                                                                        I
#          I                                                                                                                        I
#          I                              (C) 1995-2015 G. Bruzual A. & S. Charlot - All Rights Reserved                            I
#          I------------------------------------------------------------------------------------------------------------------------I
#
#    (1)       (2)     (3)     (4)     (5)     (6)     (7)      (8)       (9)       (10)     (11)     (12)     (13)     (14)    (15)
#
# Index_No.   WO-1:   WO-2:   WO-3:   WO-4:   GC-1:   4000A   DTT-Ca1   DTT-Ca2   DTT-Ca3  DTT-MgI    DM-04    DM-04    DM-04     BH:
# log-age   HdeltaA HgammaA HdeltaF HgammaF D(4000)   B4_VN  CaII8498  CaII8542  CaII8662  MgI8807  H8_3889  H9_3835 H10_3798   BH-HK
#   (yr)       (A)     (A)     (A)     (A)      .       .        (A)       (A)       (A)      (A)      (A)      (A)      (A)      (A)
  5.000000    1.829   3.677   2.150   2.738   0.922   0.960     0.341     0.390     0.365    7.518    2.095    1.700    1.268   0.034
  5.149989    1.829   3.677   2.150   2.738   0.922   0.960     0.341     0.390     0.365    7.518    2.095    1.700    1.268   0.034
  5.200002    1.829   3.677   2.150   2.738   0.922   0.960     0.341     0.390     0.365    7.518    2.095    1.700    1.268   0.034
  5.250005    1.829   3.677   2.150   2.738   0.922   0.960     0.341     0.390     0.365    7.518    2.095    1.700    1.268   0.034
  5.300008    1.829   3.677   2.150   2.738   0.922   0.960     0.341     0.390     0.365    7.518    2.095    1.700    1.268   0.034
  5.349996    1.829   3.677   2.150   2.738   0.922   0.960     0.341     0.390     0.365    7.518    2.095    1.700    1.268   0.034
  5.400002    1.829   3.677   2.150   2.738   0.922   0.960     0.341     0.390     0.365    7.518    2.095    1.700    1.268   0.034
  5.450003    1.829   3.677   2.150   2.738   0.922   0.960     0.341     0.390     0.365    7.518    2.095    1.700    1.268   0.034
  5.500003    1.829   3.677   2.150   2.738   0.922   0.960     0.341     0.390     0.365    7.518    2.095    1.700    1.268   0.034
  5.550008    1.829   3.677   2.150   2.738   0.922   0.960     0.341     0.390     0.365    7.518    2.095    1.700    1.268   0.034
  5.600003    1.829   3.677   2.150   2.738   0.922   0.960     0.341     0.390     0.365    7.518    2.095    1.700    1.268   0.034
  5.650006    1.829   3.677   2.150   2.738   0.922   0.960     0.341     0.390     0.365    7.518    2.095    1.700    1.268   0.034
  5.700002    1.829   3.677   2.150   2.738   0.922   0.960     0.341     0.390     0.365    7.518    2.095    1.700    1.268   0.034
  5.749999    1.829   3.677   2.150   2.738   0.922   0.960     0.341     0.390     0.365    7.518    2.095    1.700    1.268   0.034
  5.800002    1.829   3.677   2.150   2.738   0.922   0.960     0.341     0.390     0.365    7.518    2.095    1.700    1.268   0.034
  5.850003    1.829   3.677   2.150   2.738   0.922   0.960     0.341     0.390     0.365    7.518    2.095    1.700    1.268   0.034
  5.900001    1.829   3.677   2.150   2.738   0.922   0.960     0.341     0.390     0.365    7.518    2.095    1.700    1.268   0.034
  5.950005    1.829   3.677   2.150   2.738   0.922   0.960     0.341     0.390     0.365    7.518    2.095    1.700    1.268   0.034
  6.000000    1.824   3.672   2.145   2.734   0.922   0.960     0.340     0.389     0.364    7.518    2.091    1.696    1.266   0.034
  6.019988    1.821   3.669   2.143   2.731   0.922   0.960     0.340     0.389     0.364    7.518    2.088    1.694    1.265   0.034
  6.040009    1.817   3.665   2.140   2.728   0.922   0.960     0.340     0.389     0.363    7.519    2.085    1.691    1.263   0.034
  6.060018    1.813   3.660   2.136   2.725   0.922   0.960     0.341     0.390     0.363    7.519    2.081    1.688    1.261   0.034
  6.080013    1.808   3.655   2.132   2.720   0.922   0.960     0.341     0.390     0.362    7.519    2.077    1.685    1.259   0.033
  6.099991    1.802   3.650   2.127   2.716   0.922   0.960     0.342     0.391     0.361    7.519    2.072    1.681    1.257   0.033
  6.120014    1.796   3.643   2.122   2.710   0.922   0.960     0.344     0.393     0.360    7.519    2.067    1.677    1.254   0.033
  6.140005    1.789   3.637   2.116   2.705   0.922   0.960     0.345     0.394     0.359    7.520    2.062    1.673    1.252   0.033
  6.159988    1.782   3.629   2.110   2.699   0.921   0.960     0.347     0.396     0.358    7.520    2.055    1.668    1.249   0.033
  6.180011    1.821   3.673   2.148   2.741   0.922   0.960     0.349     0.398     0.357    7.520    2.083    1.691    1.271   0.034
  6.200002    1.882   3.741   2.207   2.807   0.922   0.960     0.351     0.400     0.355    7.520    2.126    1.727    1.305   0.034
  6.220004    1.936   3.802   2.260   2.866   0.923   0.961     0.354     0.403     0.353    7.520    2.165    1.759    1.336   0.035
  6.240000    1.982   3.854   2.306   2.917   0.923   0.961     0.357     0.406     0.351    7.520    2.198    1.787    1.364   0.035
  6.260000    2.020   3.897   2.343   2.959   0.923   0.961     0.361     0.409     0.349    7.520    2.224    1.810    1.387   0.036
  6.280009    2.034   3.917   2.360   2.982   0.924   0.962     0.362     0.411     0.346    7.522    2.231    1.819    1.405   0.036
  6.300008    2.032   3.919   2.363   2.990   0.924   0.962     0.362     0.411     0.342    7.523    2.225    1.819    1.418   0.036
  6.320001    1.926   3.823   2.285   2.925   0.923   0.961     0.418     0.467     0.313    7.524    2.127    1.753    1.412   0.034
  6.340008    1.878   3.779   2.249   2.893   0.923   0.961     0.474     0.521     0.301    7.517    2.085    1.727    1.413   0.033
  6.360006    1.857   3.759   2.233   2.879   0.923   0.961     0.517     0.564     0.291    7.511    2.065    1.708    1.405   0.033
  6.379994    1.807   3.714   2.193   2.845   0.923   0.961     0.518     0.566     0.280    7.514    2.019    1.665    1.387   0.032
  6.400002    1.759   3.666   2.155   2.807   0.922   0.961     0.519     0.566     0.267    7.520    1.973    1.639    1.381   0.031
  6.420005    1.667   3.573   2.080   2.734   0.923   0.961     0.524     0.574     0.263    7.523    1.888    1.571    1.351   0.030
  6.439995    1.551   3.448   1.996   2.644   0.924   0.961     0.531     0.587     0.271    7.515    1.814    1.515    1.325   0.028
  6.459995    1.408   3.225   1.913   2.477   0.926   0.960     0.458     0.415     0.543    7.499    1.745    1.495    1.327   0.027
  6.480007    2.305   4.125   2.647   3.215   0.950   0.970     0.603     0.668     1.237    7.499    2.570    2.178    1.872   0.040
  6.500003    3.317   5.073   3.492   4.041   1.003   0.995     1.079     1.322     1.908    7.503    3.534    3.091    2.537   0.058
  6.519999    3.514   5.244   3.705   4.243   1.021   1.003     1.234     1.506     2.070    7.503    3.793    3.378    2.781   0.062
  6.540004    3.446   5.124   3.687   4.202   1.035   1.010     1.351     1.668     2.126    7.508    3.784    3.445    2.823   0.064
  6.560002    3.389   5.014   3.655   4.151   1.044   1.017     1.353     1.718     2.091    7.517    3.780    3.474    2.833   0.067
  6.580001    3.088   4.642   3.402   3.883   1.043   1.020     1.230     1.660     1.905    7.535    3.551    3.273    2.652   0.067
  6.600003    2.256   3.649   2.681   3.140   1.035   1.027     1.013     1.579     1.472    7.575    2.867    2.657    2.086   0.068
  6.620001    1.474   2.701   2.026   2.463   1.033   1.036     0.934     1.616     1.182    7.606    2.272    2.139    1.592   0.070
  6.640004    1.654   3.045   2.186   2.651   1.009   1.015     0.906     1.492     1.195    7.587    2.334    2.155    1.694   0.060
  6.660002    1.799   3.291   2.318   2.800   0.996   1.004     0.886     1.387     1.225    7.569    2.413    2.203    1.788   0.055
  6.680000    1.929   3.517   2.432   2.929   0.983   0.994     0.854     1.249     1.246    7.548    2.474    2.234    1.859   0.050
  6.700002    2.030   3.706   2.511   3.025   0.970   0.984     0.803     1.072     1.237    7.523    2.504    2.234    1.892   0.045
  6.720002    2.091   3.838   2.543   3.072   0.958   0.975     0.732     0.889     1.203    7.499    2.500    2.198    1.874   0.041
  6.739999    2.032   3.813   2.457   2.992   0.946   0.969     0.622     0.703     0.990    7.485    2.394    2.072    1.754   0.038
  6.760000    2.061   3.839   2.482   3.012   0.946   0.969     0.619     0.699     0.994    7.483    2.426    2.101    1.773   0.039
  6.780000    2.083   3.858   2.499   3.025   0.947   0.969     0.612     0.688     0.985    7.481    2.449    2.121    1.784   0.039
  6.800002    2.091   3.865   2.504   3.027   0.946   0.969     0.599     0.670     0.958    7.479    2.459    2.130    1.784   0.039
  6.819998    2.089   3.863   2.498   3.019   0.945   0.968     0.584     0.655     0.917    7.477    2.457    2.127    1.772   0.039
  6.839999    2.049   3.827   2.459   2.979   0.942   0.967     0.545     0.608     0.807    7.471    2.419    2.091    1.732   0.039
  6.860003    2.081   3.854   2.485   3.000   0.943   0.967     0.550     0.627     0.866    7.470    2.453    2.123    1.753   0.039
  6.880002    2.118   3.886   2.516   3.025   0.944   0.967     0.553     0.644     0.922    7.469    2.493    2.160    1.778   0.040
  6.900001    2.160   3.923   2.550   3.054   0.945   0.968     0.556     0.660     0.974    7.467    2.537    2.200    1.804   0.041
  6.919998    2.204   3.961   2.585   3.084   0.946   0.968     0.557     0.673     1.020    7.466    2.582    2.241    1.832   0.041
  6.939998    2.254   4.008   2.625   3.119   0.948   0.969     0.558     0.683     1.058    7.465    2.633    2.286    1.863   0.042
  6.960000    2.311   4.062   2.671   3.160   0.949   0.970     0.556     0.689     1.087    7.463    2.690    2.337    1.896   0.043
  6.979999    2.371   4.121   2.718   3.204   0.951   0.970     0.553     0.689     1.102    7.461    2.750    2.389    1.929   0.044
  7.000000    2.434   4.183   2.766   3.250   0.952   0.971     0.546     0.681     1.096    7.459    2.812    2.442    1.962   0.045
  7.019988    2.566   4.304   2.880   3.361   0.959   0.974     0.579     0.745     1.181    7.461    2.950    2.571    2.060   0.048
  7.040009    2.721   4.450   3.022   3.501   0.968   0.978     0.632     0.826     1.328    7.465    3.116    2.731    2.193   0.051
  7.060018    2.867   4.582   3.154   3.629   0.977   0.983     0.675     0.902     1.466    7.472    3.274    2.882    2.319   0.054
  7.080013    3.002   4.704   3.275   3.744   0.985   0.987     0.703     0.959     1.568    7.478    3.421    3.019    2.432   0.057
  7.099991    3.129   4.818   3.383   3.848   0.993   0.990     0.720     1.001     1.640    7.484    3.557    3.143    2.532   0.059
  7.119981    3.243   4.919   3.478   3.937   0.999   0.993     0.724     1.028     1.686    7.490    3.678    3.250    2.615   0.062
  7.140005    3.353   5.016   3.563   4.016   1.004   0.996     0.717     1.043     1.707    7.496    3.791    3.343    2.682   0.064
  7.159988    3.452   5.101   3.632   4.078   1.008   0.998     0.697     1.045     1.701    7.503    3.888    3.413    2.726   0.066
  7.180011    3.536   5.184   3.698   4.143   1.011   0.999     0.695     1.043     1.684    7.502    3.971    3.483    2.779   0.067
  7.200002    3.549   5.189   3.707   4.147   1.012   1.000     0.687     1.039     1.682    7.502    3.989    3.501    2.788   0.068
  7.220004    3.574   5.205   3.727   4.162   1.015   1.002     0.682     1.039     1.689    7.503    4.021    3.530    2.809   0.069
  7.240000    3.602   5.223   3.749   4.179   1.017   1.003     0.676     1.038     1.694    7.504    4.053    3.560    2.830   0.070
  7.260000    3.630   5.241   3.771   4.196   1.020   1.004     0.671     1.036     1.697    7.504    4.085    3.589    2.850   0.071
  7.280009    3.659   5.261   3.794   4.214   1.022   1.006     0.666     1.032     1.701    7.504    4.116    3.616    2.869   0.071
  7.300008    3.690   5.284   3.817   4.233   1.025   1.007     0.660     1.027     1.703    7.503    4.147    3.644    2.887   0.072
  7.320001    3.710   5.306   3.826   4.242   1.025   1.007     0.654     1.014     1.685    7.499    4.159    3.652    2.884   0.073
  7.340008    3.773   5.360   3.875   4.287   1.029   1.009     0.656     1.020     1.695    7.499    4.219    3.706    2.923   0.074
  7.360006    3.845   5.421   3.935   4.343   1.034   1.012     0.664     1.034     1.719    7.500    4.292    3.772    2.977   0.075
  7.379994    3.923   5.488   4.000   4.403   1.039   1.014     0.672     1.047     1.741    7.501    4.369    3.842    3.034   0.077
  7.400002    4.001   5.556   4.065   4.464   1.044   1.017     0.680     1.060     1.762    7.501    4.448    3.914    3.094   0.079
  7.420005    4.083   5.628   4.133   4.528   1.049   1.019     0.687     1.070     1.783    7.501    4.528    3.988    3.155   0.080
  7.439995    4.177   5.715   4.209   4.601   1.054   1.022     0.696     1.080     1.799    7.501    4.617    4.068    3.220   0.082
  7.462398    4.297   5.829   4.305   4.694   1.060   1.024     0.706     1.091     1.814    7.499    4.726    4.165    3.300   0.084
  7.477121    4.378   5.908   4.370   4.757   1.064   1.026     0.713     1.097     1.824    7.498    4.800    4.231    3.354   0.086
  7.491362    4.459   5.988   4.434   4.821   1.068   1.028     0.720     1.102     1.834    7.497    4.872    4.295    3.406   0.087
  7.505150    4.539   6.068   4.497   4.884   1.071   1.029     0.726     1.106     1.843    7.495    4.942    4.358    3.458   0.088
  7.518514    4.625   6.162   4.562   4.953   1.073   1.029     0.729     1.100     1.844    7.492    5.009    4.414    3.504   0.089
  7.531479    4.660   6.190   4.588   4.976   1.076   1.031     0.730     1.105     1.851    7.491    5.043    4.447    3.529   0.090
  7.544068    4.684   6.211   4.605   4.992   1.077   1.032     0.729     1.104     1.855    7.490    5.063    4.465    3.541   0.090
  7.556303    4.708   6.228   4.623   5.007   1.079   1.033     0.730     1.108     1.863    7.489    5.084    4.486    3.558   0.091
  7.568202    4.729   6.244   4.639   5.021   1.082   1.034     0.731     1.110     1.871    7.489    5.105    4.506    3.574   0.092
  7.579783    4.753   6.263   4.657   5.036   1.084   1.035     0.732     1.113     1.878    7.488    5.126    4.527    3.590   0.092
  7.591064    4.780   6.285   4.677   5.054   1.086   1.036     0.733     1.115     1.883    7.487    5.149    4.549    3.607   0.093
  7.602060    4.807   6.307   4.696   5.071   1.088   1.037     0.734     1.117     1.888    7.486    5.171    4.571    3.622   0.093
  7.628389    4.868   6.357   4.739   5.109   1.092   1.039     0.736     1.119     1.900    7.482    5.221    4.620    3.659   0.095
  7.653213    4.900   6.379   4.763   5.130   1.096   1.041     0.736     1.119     1.910    7.479    5.249    4.652    3.683   0.096
  7.676693    4.928   6.399   4.784   5.148   1.099   1.043     0.736     1.115     1.919    7.474    5.272    4.680    3.703   0.096
  7.698970    4.966   6.438   4.810   5.175   1.101   1.043     0.736     1.107     1.927    7.467    5.294    4.707    3.720   0.097
  7.720160    4.970   6.434   4.806   5.167   1.104   1.045     0.724     1.101     1.926    7.463    5.295    4.711    3.715   0.097
  7.740363    4.898   6.353   4.759   5.116   1.105   1.046     0.724     1.103     1.937    7.460    5.245    4.684    3.702   0.097
  7.756545    4.847   6.294   4.728   5.082   1.107   1.047     0.725     1.108     1.947    7.458    5.213    4.670    3.699   0.096
  7.806546    4.715   6.140   4.648   4.989   1.112   1.049     0.713     1.110     1.977    7.451    5.130    4.631    3.686   0.095
  7.856548    4.678   6.074   4.617   4.944   1.118   1.053     0.685     1.104     2.008    7.446    5.111    4.631    3.683   0.096
  7.906545    4.808   6.195   4.705   5.024   1.127   1.057     0.669     1.114     2.048    7.443    5.219    4.720    3.749   0.099
  7.956543    4.980   6.347   4.794   5.112   1.138   1.063     0.652     1.120     2.074    7.436    5.345    4.826    3.802   0.103
  8.006552    5.090   6.447   4.855   5.167   1.144   1.067     0.632     1.132     2.087    7.430    5.427    4.884    3.814   0.105
  8.056561    5.164   6.462   4.923   5.194   1.155   1.072     0.499     0.983     1.469    7.479    5.526    4.963    3.868   0.107
  8.106531    5.370   6.634   5.038   5.300   1.167   1.079     0.508     1.016     1.540    7.471    5.695    5.100    3.927   0.112
  8.156549    5.608   6.873   5.197   5.452   1.175   1.081     0.517     1.049     1.603    7.461    5.880    5.237    4.002   0.115
  8.206556    6.009   7.245   5.431   5.668   1.190   1.089     0.517     1.076     1.666    7.452    6.175    5.457    4.108   0.122
  8.256550    6.290   7.533   5.621   5.854   1.200   1.093     0.532     1.102     1.713    7.449    6.395    5.628    4.203   0.126
  8.306554    6.687   7.902   5.864   6.081   1.217   1.101     0.543     1.124     1.726    7.449    6.696    5.871    4.331   0.133
  8.356543    7.088   8.300   6.130   6.333   1.230   1.106     0.552     1.143     1.735    7.448    6.999    6.107    4.466   0.138
  8.406540    7.505   8.707   6.390   6.580   1.246   1.113     0.559     1.161     1.738    7.445    7.310    6.354    4.583   0.145
  8.456549    7.961   9.148   6.672   6.845   1.264   1.122     0.558     1.168     1.731    7.440    7.644    6.623    4.690   0.152
  8.506546    8.137   9.304   6.782   6.938   1.275   1.127     0.569     1.188     1.777    7.436    7.786    6.754    4.754   0.155
  8.556543    8.197   9.341   6.829   6.963   1.283   1.130     0.584     1.219     1.839    7.435    7.855    6.840    4.821   0.156
  8.606543    8.251   9.349   6.848   6.961   1.293   1.136     0.591     1.239     1.931    7.431    7.892    6.900    4.848   0.159
  8.656549    8.336   9.379   6.875   6.966   1.307   1.144     0.587     1.240     2.035    7.427    7.954    6.980    4.883   0.163
  8.706547    8.217   9.249   6.795   6.885   1.312   1.148     0.580     1.210     2.069    7.423    7.880    6.952    4.839   0.163
  8.756545    7.954   8.960   6.626   6.708   1.316   1.151     0.564     1.172     2.067    7.432    7.731    6.871    4.751   0.161
  8.806546    7.544   8.527   6.350   6.424   1.320   1.155     0.535     1.123     2.051    7.448    7.486    6.702    4.585   0.158
  8.856547    6.497   7.465   5.638   5.737   1.312   1.158     0.484     1.052     2.034    7.473    6.736    6.115    4.094   0.148
  8.906550    5.249   6.231   4.799   4.938   1.300   1.159     0.442     1.015     2.030    7.499    5.828    5.379    3.532   0.136
  8.956548    4.919   5.837   4.551   4.647   1.301   1.161     0.434     1.034     2.071    7.508    5.556    5.163    3.378   0.130
  9.006552    4.626   5.419   4.322   4.358   1.313   1.172     0.446     1.105     2.105    7.534    5.380    5.035    3.269   0.132
  9.056561    4.224   4.850   4.017   3.980   1.333   1.189     0.461     1.190     2.109    7.561    5.168    4.879    3.122   0.137
  9.106565    4.464   4.870   4.181   4.033   1.358   1.207     0.512     1.362     2.171    7.566    5.454    5.164    3.219   0.151
  9.156549    4.080   4.336   3.944   3.734   1.367   1.218     0.541     1.457     2.203    7.579    5.279    5.060    3.046   0.157
  9.206556    4.079   4.225   3.897   3.632   1.388   1.233     0.547     1.477     2.211    7.589    5.292    5.108    3.049   0.163
  9.225309    4.069   4.138   3.857   3.553   1.402   1.242     0.550     1.487     2.210    7.596    5.296    5.133    3.049   0.167
  9.230449    4.034   4.070   3.826   3.507   1.407   1.246     0.550     1.488     2.205    7.599    5.282    5.126    3.037   0.168
  9.255273    3.909   3.908   3.726   3.387   1.415   1.253     0.558     1.509     2.209    7.608    5.205    5.073    2.984   0.170
  9.278753    3.758   3.755   3.628   3.285   1.419   1.256     0.568     1.529     2.205    7.617    5.119    4.998    2.928   0.170
  9.301030    3.743   3.746   3.623   3.277   1.421   1.257     0.577     1.545     2.206    7.620    5.125    4.996    2.926   0.170
  9.322219    3.859   3.901   3.702   3.367   1.421   1.255     0.583     1.555     2.215    7.621    5.197    5.050    2.974   0.170
  9.342422    3.985   4.030   3.779   3.443   1.424   1.256     0.585     1.553     2.210    7.616    5.287    5.122    3.034   0.171
  9.361728    3.971   4.006   3.766   3.424   1.428   1.258     0.589     1.556     2.201    7.619    5.288    5.123    3.035   0.172
  9.380211    3.923   3.961   3.734   3.394   1.429   1.260     0.592     1.559     2.194    7.621    5.263    5.101    3.022   0.172
  9.397940    3.868   3.912   3.697   3.362   1.431   1.261     0.595     1.564     2.188    7.624    5.233    5.075    3.006   0.172
  9.414973    3.814   3.873   3.661   3.336   1.432   1.262     0.598     1.568     2.182    7.626    5.202    5.046    2.992   0.171
  9.439333    3.742   3.839   3.614   3.309   1.431   1.262     0.601     1.576     2.187    7.628    5.144    4.999    2.968   0.170
  9.477121    3.444   3.568   3.409   3.131   1.431   1.264     0.607     1.601     2.196    7.632    4.926    4.821    2.847   0.168
  9.511884    3.103   3.260   3.174   2.928   1.432   1.267     0.610     1.618     2.198    7.638    4.677    4.617    2.709   0.165
  9.544068    2.852   3.052   2.999   2.790   1.431   1.268     0.611     1.629     2.200    7.642    4.483    4.458    2.607   0.163
  9.574031    2.617   2.836   2.842   2.645   1.432   1.271     0.608     1.634     2.193    7.643    4.308    4.327    2.508   0.161
  9.602060    2.419   2.638   2.711   2.516   1.434   1.274     0.604     1.636     2.179    7.645    4.165    4.220    2.424   0.161
  9.628389    2.291   2.496   2.628   2.425   1.435   1.277     0.599     1.634     2.161    7.646    4.077    4.157    2.371   0.161
  9.653213    2.226   2.403   2.589   2.368   1.437   1.279     0.593     1.630     2.145    7.645    4.038    4.133    2.345   0.161
  9.676694    2.168   2.324   2.555   2.319   1.437   1.280     0.588     1.626     2.130    7.644    4.002    4.109    2.321   0.161
  9.698970    2.120   2.261   2.524   2.282   1.437   1.281     0.583     1.623     2.120    7.644    3.972    4.082    2.307   0.161
  9.720160    2.055   2.183   2.482   2.236   1.437   1.282     0.580     1.626     2.118    7.644    3.934    4.044    2.287   0.160
  9.740363    1.986   2.103   2.438   2.189   1.438   1.283     0.577     1.629     2.117    7.644    3.892    4.001    2.266   0.160
  9.759667    1.908   2.017   2.389   2.138   1.437   1.283     0.576     1.634     2.118    7.644    3.845    3.953    2.243   0.159
  9.778152    1.824   1.926   2.336   2.084   1.437   1.284     0.575     1.640     2.120    7.643    3.792    3.898    2.217   0.158
  9.795880    1.741   1.839   2.284   2.032   1.436   1.284     0.576     1.647     2.124    7.642    3.739    3.844    2.193   0.157
  9.812913    1.676   1.771   2.243   1.992   1.436   1.284     0.576     1.654     2.129    7.640    3.697    3.801    2.174   0.156
  9.829304    1.633   1.739   2.217   1.972   1.434   1.283     0.576     1.660     2.136    7.637    3.664    3.764    2.164   0.155
  9.845098    1.564   1.668   2.174   1.929   1.434   1.284     0.577     1.666     2.150    7.637    3.620    3.720    2.141   0.154
  9.860338    1.491   1.589   2.128   1.881   1.434   1.284     0.578     1.671     2.162    7.638    3.573    3.675    2.116   0.154
  9.875061    1.421   1.513   2.085   1.835   1.435   1.285     0.579     1.676     2.174    7.639    3.529    3.632    2.092   0.153
  9.889301    1.355   1.439   2.044   1.791   1.435   1.286     0.579     1.680     2.184    7.640    3.487    3.592    2.069   0.153
  9.903090    1.293   1.368   2.005   1.749   1.435   1.287     0.580     1.683     2.194    7.641    3.447    3.556    2.046   0.152
  9.916454    1.235   1.301   1.969   1.710   1.436   1.288     0.580     1.686     2.203    7.642    3.410    3.523    2.024   0.152
  9.929419    1.182   1.237   1.936   1.672   1.437   1.290     0.580     1.687     2.211    7.643    3.375    3.494    2.003   0.152
  9.942008    1.135   1.178   1.906   1.638   1.437   1.291     0.580     1.688     2.218    7.643    3.345    3.470    1.984   0.153
  9.954243    1.094   1.124   1.880   1.607   1.438   1.293     0.580     1.688     2.224    7.644    3.318    3.450    1.966   0.153
  9.966142    1.060   1.076   1.858   1.579   1.439   1.294     0.580     1.687     2.230    7.644    3.295    3.435    1.949   0.153
  9.977724    1.030   1.033   1.839   1.554   1.440   1.296     0.579     1.687     2.235    7.644    3.274    3.422    1.934   0.154
  9.989004    1.001   0.991   1.820   1.529   1.441   1.297     0.579     1.686     2.240    7.644    3.253    3.409    1.919   0.154
 10.000000    0.984   0.957   1.810   1.511   1.442   1.298     0.579     1.687     2.246    7.644    3.242    3.406    1.909   0.155
 10.010724    1.025   0.973   1.838   1.527   1.444   1.300     0.582     1.693     2.247    7.644    3.279    3.445    1.923   0.157
 10.021190    1.065   0.987   1.866   1.541   1.446   1.301     0.584     1.698     2.248    7.643    3.316    3.483    1.938   0.158
 10.031408    1.105   1.002   1.894   1.556   1.448   1.303     0.586     1.702     2.248    7.643    3.353    3.521    1.952   0.159
 10.041392    1.145   1.017   1.921   1.572   1.450   1.304     0.588     1.707     2.247    7.642    3.390    3.559    1.967   0.161
 10.051152    1.186   1.034   1.950   1.588   1.452   1.306     0.590     1.711     2.247    7.642    3.427    3.597    1.982   0.162
 10.060698    1.227   1.053   1.978   1.604   1.454   1.307     0.592     1.715     2.247    7.641    3.465    3.635    1.998   0.164
 10.070038    1.270   1.073   2.007   1.621   1.456   1.308     0.594     1.719     2.246    7.641    3.503    3.673    2.015   0.165
 10.079182    1.312   1.094   2.036   1.639   1.457   1.310     0.596     1.724     2.246    7.640    3.541    3.711    2.031   0.166
 10.088136    1.356   1.117   2.066   1.658   1.459   1.311     0.598     1.728     2.247    7.640    3.579    3.749    2.049   0.167
 10.096910    1.400   1.142   2.095   1.678   1.461   1.312     0.600     1.733     2.247    7.640    3.619    3.787    2.067   0.168
 10.105510    1.445   1.168   2.125   1.698   1.462   1.313     0.601     1.737     2.247    7.639    3.658    3.824    2.085   0.169
 10.113943    1.490   1.195   2.155   1.719   1.464   1.314     0.603     1.742     2.248    7.639    3.697    3.861    2.104   0.170
 10.122216    1.536   1.224   2.186   1.740   1.465   1.315     0.605     1.747     2.249    7.638    3.736    3.897    2.123   0.171
 10.130334    1.581   1.254   2.216   1.762   1.467   1.315     0.607     1.753     2.250    7.638    3.775    3.932    2.142   0.172
 10.138303    1.628   1.286   2.247   1.785   1.468   1.316     0.609     1.758     2.252    7.637    3.814    3.968    2.162   0.173
 10.146128    1.675   1.320   2.278   1.809   1.469   1.316     0.611     1.764     2.254    7.637    3.853    4.003    2.183   0.173
 10.153815    1.724   1.358   2.310   1.834   1.471   1.317     0.613     1.770     2.256    7.636    3.894    4.038    2.204   0.174
 10.161368    1.775   1.400   2.343   1.862   1.472   1.317     0.615     1.776     2.258    7.635    3.935    4.073    2.227   0.175
 10.168792    1.826   1.440   2.376   1.889   1.473   1.317     0.616     1.781     2.260    7.635    3.977    4.109    2.249   0.175
 10.176091    1.876   1.481   2.409   1.916   1.474   1.317     0.618     1.787     2.262    7.634    4.017    4.144    2.272   0.176
 10.183270    1.927   1.525   2.443   1.945   1.475   1.317     0.620     1.792     2.263    7.634    4.058    4.179    2.294   0.176
 10.190331    1.939   1.533   2.451   1.951   1.475   1.317     0.619     1.794     2.264    7.634    4.069    4.189    2.299   0.176
 10.197281    1.942   1.530   2.454   1.951   1.475   1.317     0.620     1.799     2.266    7.634    4.075    4.194    2.301   0.176
 10.204120    1.944   1.526   2.457   1.951   1.475   1.317     0.621     1.804     2.268    7.634    4.080    4.198    2.303   0.176
 10.210854    1.946   1.522   2.459   1.950   1.476   1.317     0.622     1.809     2.270    7.634    4.085    4.202    2.305   0.176
 10.217484    1.947   1.517   2.461   1.949   1.476   1.318     0.623     1.813     2.272    7.634    4.090    4.205    2.306   0.176
 10.224015    1.948   1.512   2.462   1.948   1.476   1.318     0.624     1.818     2.274    7.634    4.094    4.208    2.307   0.176
 10.230449    1.947   1.507   2.463   1.947   1.476   1.318     0.625     1.823     2.276    7.634    4.097    4.210    2.308   0.176
 10.236789    1.946   1.502   2.464   1.945   1.476   1.318     0.626     1.828     2.278    7.634    4.100    4.212    2.309   0.176
 10.243038    1.945   1.496   2.464   1.943   1.477   1.318     0.627     1.832     2.279    7.634    4.102    4.213    2.309   0.176
 10.249198    1.942   1.489   2.464   1.941   1.477   1.318     0.628     1.837     2.281    7.634    4.103    4.214    2.310   0.176
 10.255273    1.939   1.483   2.463   1.939   1.477   1.318     0.629     1.842     2.283    7.634    4.104    4.215    2.310   0.176
 10.261263    1.935   1.476   2.462   1.936   1.477   1.318     0.629     1.846     2.285    7.634    4.105    4.215    2.309   0.176
 10.267172    1.931   1.469   2.460   1.934   1.477   1.318     0.630     1.851     2.286    7.634    4.104    4.214    2.309   0.176
 10.273002    1.925   1.461   2.458   1.930   1.477   1.318     0.631     1.855     2.288    7.634    4.103    4.213    2.308   0.176
 10.278753    1.918   1.451   2.455   1.926   1.477   1.318     0.632     1.860     2.290    7.634    4.102    4.211    2.306   0.176
 10.284431    1.910   1.441   2.451   1.921   1.477   1.318     0.632     1.864     2.291    7.634    4.099    4.208    2.304   0.176
 10.290034    1.901   1.430   2.447   1.916   1.477   1.318     0.633     1.869     2.293    7.634    4.095    4.204    2.302   0.175
 10.295568    1.891   1.418   2.441   1.910   1.477   1.318     0.634     1.873     2.294    7.634    4.091    4.199    2.298   0.175
 10.301030    1.880   1.404   2.436   1.903   1.477   1.318     0.634     1.877     2.296    7.634    4.086    4.194    2.294   0.175
