#                                                     Thu Jun  9 00:52:52 2016
#          I------------------------------------------------------------------------------------------------------------------------I
#          I                                                                                                                        I
#          I      BC_GALAXEV  ---  MODEL PARAMETERS:   Generic file name for this model = bc2003_hr_xmiless_m22_kroup_ssp           I
#          I                                                                                                                        I
#          I      TRACKS: Padova (1994) + S. Charlot (1997). X=0.7696, Y=0.2303, Z=0.0001                                           I
#          I                                                                                                                        I
#          I      S.F.R.: SSP = Zero Length Burst at t = 0                                                                          I
#          I                                                                                                                        I
#          I                                                                                                                        I
#          I      I.M.F.: Power law ( 2 segments):                                                                                  I
#          I                                                                      mass in      number                               I
#          I                                              x   from m     to m     segment    of stars      c                        I
#          I                                           0.30     0.10     0.50      0.2668      1.1434  4.4891E-01                   I
#          I                                           1.30     0.50   100.00      0.7332      0.4247  2.2446E-01                   I
#          I                                                                                                                        I
#          I                                                           totals      1.0000      1.5681  0.6377 Mo/star               I
#          I                                                                                                                        I
#          I                                                                                                                        I
#          I                                                                                                                        I
#          I                                                                                                                        I
#          I      LISTED: Rest frame properties                                                                                     I
#          I                                                                                                                        I
#          I                                                                                                                        I
#          I                              (C) 1995-2015 G. Bruzual A. & S. Charlot - All Rights Reserved                            I
#          I------------------------------------------------------------------------------------------------------------------------I
#
#    (1)       (2)     (3)     (4)     (5)     (6)     (7)      (8)       (9)       (10)     (11)     (12)     (13)     (14)    (15)
#
# Index_No.   WO-1:   WO-2:   WO-3:   WO-4:   GC-1:   4000A   DTT-Ca1   DTT-Ca2   DTT-Ca3  DTT-MgI    DM-04    DM-04    DM-04     BH:
# log-age   HdeltaA HgammaA HdeltaF HgammaF D(4000)   B4_VN  CaII8498  CaII8542  CaII8662  MgI8807  H8_3889  H9_3835 H10_3798   BH-HK
#   (yr)       (A)     (A)     (A)     (A)      .       .        (A)       (A)       (A)      (A)      (A)      (A)      (A)      (A)
  5.000000    1.419   3.240   1.751   2.320   0.918   0.958     0.268     0.339     0.402    7.535    1.777    1.435    1.040   0.029
  5.149989    1.419   3.240   1.751   2.320   0.918   0.958     0.268     0.339     0.402    7.535    1.777    1.435    1.040   0.029
  5.200002    1.419   3.240   1.751   2.320   0.918   0.958     0.268     0.339     0.402    7.535    1.777    1.435    1.040   0.029
  5.250005    1.419   3.240   1.751   2.320   0.918   0.958     0.268     0.339     0.402    7.535    1.777    1.435    1.040   0.029
  5.300008    1.419   3.240   1.751   2.320   0.918   0.958     0.268     0.339     0.402    7.535    1.777    1.435    1.040   0.029
  5.349996    1.419   3.240   1.751   2.320   0.918   0.958     0.268     0.339     0.402    7.535    1.777    1.435    1.040   0.029
  5.400002    1.418   3.239   1.750   2.320   0.918   0.958     0.268     0.339     0.402    7.535    1.776    1.434    1.040   0.029
  5.450003    1.412   3.233   1.745   2.314   0.918   0.958     0.267     0.339     0.401    7.535    1.771    1.430    1.037   0.029
  5.500003    1.404   3.224   1.738   2.307   0.918   0.958     0.267     0.338     0.401    7.535    1.765    1.425    1.033   0.029
  5.550008    1.397   3.217   1.732   2.301   0.918   0.957     0.266     0.337     0.400    7.536    1.759    1.420    1.030   0.028
  5.600003    1.409   3.229   1.742   2.311   0.918   0.958     0.267     0.338     0.401    7.535    1.769    1.428    1.036   0.029
  5.650006    1.400   3.220   1.734   2.303   0.918   0.958     0.267     0.338     0.401    7.535    1.764    1.424    1.032   0.029
  5.700002    1.401   3.221   1.735   2.304   0.918   0.958     0.266     0.338     0.400    7.536    1.764    1.424    1.032   0.029
  5.749999    1.402   3.223   1.737   2.306   0.918   0.958     0.265     0.337     0.399    7.536    1.764    1.424    1.033   0.029
  5.800002    1.400   3.221   1.735   2.304   0.918   0.958     0.265     0.336     0.399    7.536    1.762    1.423    1.032   0.029
  5.850003    1.573   3.408   1.897   2.478   0.920   0.959     0.244     0.315     0.399    7.540    1.888    1.524    1.113   0.031
  5.900001    1.502   3.331   1.832   2.408   0.919   0.958     0.257     0.328     0.396    7.539    1.835    1.481    1.081   0.030
  5.950005    1.464   3.290   1.797   2.371   0.919   0.958     0.288     0.359     0.393    7.534    1.804    1.455    1.063   0.029
  6.000000    1.502   3.333   1.836   2.415   0.919   0.958     0.264     0.334     0.391    7.540    1.828    1.471    1.080   0.029
  6.019988    1.560   3.397   1.891   2.475   0.919   0.958     0.249     0.319     0.391    7.543    1.868    1.501    1.106   0.030
  6.040009    1.527   3.362   1.862   2.444   0.919   0.958     0.252     0.323     0.389    7.543    1.844    1.483    1.092   0.030
  6.060018    1.504   3.338   1.841   2.422   0.918   0.958     0.258     0.328     0.387    7.542    1.826    1.470    1.083   0.029
  6.080013    1.492   3.325   1.830   2.412   0.918   0.958     0.264     0.335     0.386    7.541    1.817    1.464    1.079   0.029
  6.099991    1.497   3.331   1.836   2.418   0.918   0.958     0.275     0.345     0.385    7.540    1.821    1.468    1.084   0.029
  6.120014    1.578   3.420   1.913   2.503   0.919   0.958     0.250     0.321     0.384    7.545    1.876    1.510    1.120   0.030
  6.140005    1.569   3.412   1.907   2.497   0.918   0.958     0.248     0.318     0.382    7.546    1.868    1.504    1.118   0.030
  6.159988    1.566   3.411   1.907   2.498   0.918   0.958     0.253     0.323     0.379    7.546    1.865    1.503    1.121   0.030
  6.180011    1.602   3.452   1.943   2.539   0.918   0.959     0.259     0.329     0.377    7.546    1.891    1.526    1.144   0.030
  6.200002    1.663   3.519   2.001   2.604   0.919   0.959     0.262     0.332     0.376    7.546    1.934    1.562    1.178   0.031
  6.220004    1.698   3.560   2.038   2.646   0.919   0.959     0.250     0.320     0.374    7.549    1.958    1.583    1.199   0.031
  6.240000    1.691   3.554   2.034   2.643   0.919   0.959     0.255     0.324     0.371    7.549    1.953    1.582    1.204   0.031
  6.260000    1.678   3.542   2.023   2.633   0.919   0.959     0.262     0.331     0.368    7.549    1.943    1.578    1.206   0.031
  6.280009    1.719   3.590   2.067   2.683   0.920   0.959     0.265     0.334     0.365    7.550    1.972    1.607    1.241   0.031
  6.300008    1.743   3.619   2.093   2.714   0.920   0.960     0.267     0.336     0.361    7.551    1.988    1.622    1.262   0.032
  6.320001    1.769   3.650   2.120   2.746   0.920   0.960     0.278     0.347     0.356    7.550    2.005    1.639    1.283   0.032
  6.340008    1.791   3.676   2.144   2.774   0.921   0.960     0.297     0.365     0.351    7.549    2.021    1.654    1.302   0.032
  6.360006    1.798   3.688   2.157   2.791   0.921   0.960     0.322     0.390     0.344    7.546    2.025    1.661    1.318   0.032
  6.379994    1.794   3.688   2.160   2.798   0.921   0.960     0.360     0.428     0.336    7.541    2.019    1.658    1.328   0.032
  6.400002    1.774   3.671   2.150   2.792   0.921   0.960     0.389     0.457     0.328    7.538    1.999    1.646    1.335   0.032
  6.420005    1.738   3.639   2.127   2.773   0.922   0.960     0.414     0.482     0.321    7.535    1.969    1.628    1.340   0.031
  6.439995    1.696   3.598   2.098   2.746   0.922   0.960     0.446     0.510     0.309    7.530    1.933    1.605    1.341   0.030
  6.459995    1.594   3.493   2.025   2.672   0.923   0.960     0.472     0.528     0.296    7.520    1.860    1.556    1.329   0.029
  6.480007    2.403   4.244   2.871   3.482   0.973   0.980     0.885     1.003     1.770    7.474    2.812    2.516    2.221   0.043
  6.500003    2.548   3.486   3.188   3.356   1.153   1.107     1.490     2.138     1.439    7.598    3.807    3.489    2.776   0.091
  6.519999    2.440   3.262   3.127   3.249   1.178   1.125     1.533     2.204     1.415    7.605    3.847    3.553    2.784   0.098
  6.540004    2.273   3.028   2.983   3.097   1.191   1.136     1.487     2.182     1.379    7.610    3.757    3.506    2.690   0.103
  6.560002    2.009   2.672   2.746   2.857   1.207   1.149     1.392     2.122     1.339    7.616    3.578    3.397    2.516   0.110
  6.580001    1.586   2.115   2.357   2.474   1.227   1.168     1.237     2.014     1.293    7.624    3.251    3.185    2.212   0.122
  6.600003    1.100   1.540   1.871   2.051   1.234   1.179     1.049     1.885     1.266    7.630    2.784    2.860    1.791   0.133
  6.620001    1.019   1.515   1.734   1.994   1.210   1.163     0.999     1.855     1.296    7.631    2.586    2.703    1.625   0.131
  6.640004    1.084   1.629   1.770   2.058   1.196   1.153     1.006     1.844     1.256    7.630    2.586    2.685    1.632   0.126
  6.660002    1.163   1.790   1.820   2.139   1.176   1.138     1.015     1.827     1.203    7.628    2.584    2.649    1.646   0.120
  6.680000    1.262   2.023   1.882   2.239   1.144   1.114     1.017     1.791     1.141    7.624    2.548    2.558    1.647   0.109
  6.700002    1.396   2.405   1.968   2.379   1.087   1.073     1.001     1.703     1.050    7.616    2.447    2.367    1.627   0.089
  6.720002    1.617   3.107   2.115   2.620   0.994   1.006     0.892     1.368     0.859    7.584    2.261    2.037    1.584   0.056
  6.739999    1.799   3.626   2.235   2.810   0.937   0.965     0.539     0.563     0.666    7.487    2.158    1.852    1.560   0.034
  6.760000    1.816   3.645   2.248   2.821   0.936   0.964     0.515     0.518     0.612    7.482    2.175    1.865    1.566   0.034
  6.780000    1.849   3.674   2.275   2.845   0.937   0.965     0.515     0.517     0.602    7.479    2.210    1.896    1.585   0.035
  6.800002    1.885   3.708   2.305   2.871   0.937   0.965     0.515     0.517     0.590    7.477    2.248    1.929    1.604   0.036
  6.819998    1.932   3.754   2.341   2.906   0.938   0.965     0.517     0.525     0.579    7.474    2.292    1.965    1.624   0.036
  6.839999    1.996   3.820   2.391   2.957   0.939   0.966     0.518     0.531     0.569    7.469    2.352    2.014    1.652   0.037
  6.860003    2.022   3.845   2.412   2.975   0.939   0.966     0.505     0.513     0.547    7.465    2.381    2.039    1.666   0.038
  6.880002    2.048   3.870   2.435   2.996   0.940   0.966     0.504     0.514     0.567    7.462    2.415    2.071    1.689   0.038
  6.900001    2.083   3.902   2.464   3.021   0.941   0.966     0.503     0.515     0.585    7.459    2.455    2.109    1.714   0.039
  6.919998    2.125   3.941   2.500   3.053   0.942   0.967     0.503     0.518     0.601    7.455    2.503    2.153    1.743   0.040
  6.939998    2.174   3.987   2.540   3.089   0.943   0.967     0.504     0.524     0.615    7.450    2.557    2.201    1.775   0.041
  6.960000    2.229   4.039   2.585   3.130   0.944   0.967     0.507     0.532     0.626    7.446    2.615    2.254    1.810   0.042
  6.979999    2.300   4.110   2.643   3.185   0.945   0.968     0.509     0.545     0.640    7.442    2.688    2.318    1.851   0.043
  7.000000    2.382   4.192   2.708   3.249   0.947   0.969     0.513     0.563     0.646    7.437    2.770    2.388    1.895   0.044
  7.019988    2.479   4.290   2.784   3.323   0.949   0.969     0.514     0.573     0.656    7.431    2.860    2.462    1.941   0.046
  7.040009    2.540   4.349   2.831   3.367   0.950   0.970     0.511     0.572     0.678    7.428    2.917    2.512    1.973   0.047
  7.060018    2.588   4.393   2.869   3.402   0.952   0.971     0.514     0.580     0.727    7.427    2.964    2.553    2.004   0.047
  7.080013    2.640   4.443   2.911   3.441   0.953   0.971     0.518     0.588     0.778    7.426    3.016    2.599    2.037   0.048
  7.099991    2.701   4.501   2.959   3.486   0.956   0.972     0.523     0.597     0.832    7.426    3.073    2.648    2.072   0.049
  7.119981    2.769   4.567   3.013   3.537   0.958   0.973     0.529     0.606     0.889    7.426    3.136    2.702    2.111   0.050
  7.140005    2.845   4.642   3.072   3.594   0.960   0.974     0.535     0.616     0.948    7.426    3.205    2.759    2.153   0.051
  7.159988    2.909   4.704   3.120   3.641   0.962   0.975     0.537     0.619     0.986    7.425    3.261    2.806    2.184   0.052
  7.180011    3.006   4.800   3.195   3.716   0.965   0.976     0.538     0.635     1.051    7.423    3.349    2.880    2.235   0.054
  7.200002    3.069   4.865   3.244   3.764   0.967   0.977     0.537     0.631     1.063    7.421    3.406    2.928    2.269   0.055
  7.220004    3.131   4.927   3.293   3.812   0.969   0.978     0.540     0.637     1.090    7.421    3.462    2.977    2.306   0.056
  7.240000    3.195   4.991   3.344   3.862   0.972   0.979     0.546     0.644     1.118    7.421    3.520    3.028    2.344   0.057
  7.260000    3.263   5.058   3.398   3.916   0.974   0.980     0.554     0.652     1.148    7.421    3.581    3.082    2.385   0.058
  7.280009    3.332   5.126   3.454   3.972   0.977   0.981     0.563     0.661     1.179    7.421    3.643    3.139    2.428   0.059
  7.300008    3.380   5.174   3.493   4.009   0.979   0.982     0.568     0.664     1.195    7.419    3.685    3.178    2.456   0.060
  7.320001    3.576   5.371   3.653   4.172   0.985   0.985     0.589     0.686     1.258    7.420    3.863    3.328    2.579   0.062
  7.340008    3.734   5.529   3.788   4.308   0.991   0.987     0.608     0.709     1.343    7.422    4.012    3.457    2.692   0.065
  7.360006    3.860   5.651   3.900   4.420   0.997   0.989     0.630     0.738     1.429    7.426    4.135    3.569    2.796   0.067
  7.379994    3.966   5.752   3.999   4.518   1.003   0.992     0.654     0.766     1.511    7.429    4.243    3.671    2.894   0.068
  7.400002    4.051   5.832   4.085   4.602   1.009   0.994     0.680     0.795     1.589    7.431    4.336    3.764    2.987   0.069
  7.420005    4.105   5.879   4.149   4.664   1.014   0.996     0.707     0.825     1.665    7.433    4.404    3.842    3.070   0.070
  7.439995    4.122   5.886   4.189   4.700   1.019   0.998     0.737     0.856     1.738    7.435    4.445    3.901    3.141   0.071
  7.462398    4.095   5.847   4.204   4.710   1.025   1.000     0.773     0.893     1.817    7.436    4.455    3.946    3.208   0.071
  7.477121    4.047   5.791   4.194   4.697   1.028   1.002     0.799     0.919     1.870    7.437    4.440    3.962    3.244   0.070
  7.491362    3.976   5.711   4.168   4.668   1.031   1.003     0.826     0.946     1.923    7.437    4.405    3.965    3.272   0.070
  7.505150    3.882   5.609   4.121   4.618   1.033   1.004     0.847     0.966     1.961    7.437    4.348    3.948    3.278   0.069
  7.518514    3.871   5.595   4.120   4.615   1.034   1.005     0.854     0.972     1.976    7.434    4.345    3.954    3.288   0.069
  7.531479    3.883   5.607   4.133   4.628   1.035   1.005     0.858     0.975     1.990    7.431    4.358    3.970    3.304   0.069
  7.544068    3.894   5.617   4.145   4.639   1.036   1.006     0.858     0.977     2.000    7.429    4.370    3.983    3.319   0.069
  7.556303    3.906   5.627   4.156   4.650   1.037   1.006     0.858     0.979     2.011    7.427    4.383    3.997    3.333   0.069
  7.568202    3.919   5.637   4.168   4.661   1.039   1.007     0.857     0.981     2.022    7.425    4.396    4.010    3.347   0.070
  7.579783    3.931   5.648   4.179   4.671   1.040   1.007     0.856     0.983     2.032    7.422    4.408    4.023    3.359   0.070
  7.591064    3.945   5.660   4.191   4.682   1.041   1.007     0.856     0.985     2.041    7.420    4.421    4.035    3.372   0.070
  7.602060    3.957   5.671   4.202   4.693   1.042   1.008     0.855     0.987     2.049    7.417    4.433    4.047    3.384   0.070
  7.628389    3.991   5.700   4.230   4.719   1.044   1.009     0.853     0.992     2.071    7.410    4.465    4.077    3.411   0.071
  7.653213    4.004   5.711   4.244   4.732   1.046   1.010     0.849     0.996     2.093    7.402    4.482    4.096    3.429   0.071
  7.676693    4.018   5.722   4.258   4.744   1.047   1.010     0.842     0.999     2.117    7.392    4.498    4.112    3.444   0.072
  7.698970    4.040   5.742   4.266   4.752   1.047   1.011     0.825     0.990     2.119    7.382    4.512    4.117    3.438   0.072
  7.720160    4.050   5.748   4.276   4.758   1.049   1.011     0.820     0.995     2.122    7.383    4.526    4.130    3.449   0.072
  7.740363    4.046   5.738   4.278   4.758   1.050   1.012     0.822     1.007     2.138    7.384    4.529    4.139    3.463   0.072
  7.756545    4.044   5.731   4.281   4.758   1.052   1.013     0.823     1.018     2.151    7.385    4.534    4.148    3.475   0.073
  7.806546    4.063   5.730   4.301   4.768   1.058   1.016     0.822     1.053     2.183    7.391    4.565    4.184    3.514   0.074
  7.856548    4.091   5.733   4.324   4.778   1.064   1.019     0.815     1.090     2.212    7.398    4.604    4.223    3.551   0.075
  7.906545    4.099   5.709   4.332   4.768   1.071   1.023     0.802     1.129     2.236    7.406    4.631    4.252    3.575   0.076
  7.956543    4.110   5.676   4.335   4.747   1.079   1.027     0.781     1.171     2.252    7.416    4.663    4.279    3.586   0.078
  8.006552    4.154   5.659   4.347   4.725   1.090   1.034     0.749     1.218     2.258    7.429    4.721    4.317    3.589   0.081
  8.056561    4.204   5.617   4.344   4.671   1.105   1.043     0.702     1.270     2.251    7.446    4.790    4.349    3.559   0.085
  8.106531    4.300   5.561   4.332   4.574   1.127   1.058     0.635     1.333     2.215    7.470    4.903    4.384    3.470   0.092
  8.156549    4.479   5.463   4.283   4.372   1.167   1.085     0.540     1.400     2.123    7.501    5.102    4.406    3.220   0.106
  8.206556    4.785   5.812   4.535   4.643   1.168   1.084     0.437     1.191     1.635    7.515    5.338    4.620    3.424   0.108
  8.256550    5.040   6.222   4.788   4.981   1.158   1.074     0.433     1.111     1.662    7.496    5.492    4.813    3.675   0.106
  8.306554    5.316   6.611   5.023   5.279   1.156   1.070     0.430     1.031     1.683    7.475    5.663    5.005    3.872   0.107
  8.356543    5.676   7.044   5.278   5.574   1.164   1.072     0.429     0.959     1.694    7.456    5.898    5.233    4.040   0.111
  8.406540    6.190   7.583   5.600   5.907   1.184   1.080     0.433     0.915     1.699    7.438    6.248    5.538    4.204   0.118
  8.456549    6.599   7.987   5.856   6.152   1.195   1.085     0.413     0.910     1.721    7.434    6.553    5.753    4.322   0.124
  8.506546    6.870   8.247   6.033   6.316   1.206   1.090     0.450     0.985     1.820    7.428    6.769    5.921    4.422   0.128
  8.556543    7.044   8.409   6.143   6.416   1.214   1.094     0.472     1.036     1.902    7.424    6.908    6.034    4.478   0.131
  8.606543    7.237   8.616   6.279   6.556   1.218   1.095     0.484     1.077     1.985    7.415    7.042    6.140    4.533   0.133
  8.656549    7.349   8.714   6.343   6.609   1.227   1.099     0.487     1.078     2.043    7.406    7.137    6.223    4.565   0.136
  8.706547    7.493   8.849   6.437   6.693   1.236   1.104     0.493     1.088     2.063    7.403    7.249    6.327    4.615   0.139
  8.756545    7.514   8.853   6.448   6.696   1.245   1.109     0.496     1.092     2.088    7.401    7.279    6.376    4.607   0.140
  8.806546    7.572   8.896   6.481   6.720   1.255   1.115     0.491     1.085     2.122    7.398    7.333    6.441    4.596   0.143
  8.856547    7.729   9.042   6.581   6.811   1.266   1.120     0.475     1.071     2.174    7.391    7.459    6.555    4.607   0.146
  8.906550    7.725   8.995   6.552   6.759   1.278   1.128     0.478     1.093     2.208    7.399    7.475    6.589    4.592   0.149
  8.956548    7.544   8.752   6.403   6.584   1.289   1.136     0.487     1.123     2.237    7.419    7.359    6.534    4.515   0.150
  9.006552    7.160   8.340   6.106   6.289   1.299   1.143     0.527     1.172     2.269    7.440    7.036    6.340    4.309   0.146
  9.056561    5.195   6.294   4.815   5.002   1.296   1.153     0.501     1.193     2.099    7.550    5.796    5.350    3.549   0.131
  9.106565    4.684   5.665   4.482   4.624   1.301   1.161     0.488     1.233     2.066    7.554    5.552    5.120    3.393   0.132
  9.156549    4.152   5.008   4.089   4.183   1.313   1.175     0.474     1.217     2.042    7.584    5.209    4.846    3.150   0.135
  9.206556    4.106   4.927   4.044   4.125   1.314   1.178     0.458     1.169     2.018    7.597    5.159    4.808    3.084   0.137
  9.225309    4.093   4.916   4.035   4.115   1.313   1.178     0.459     1.174     2.033    7.584    5.146    4.798    3.075   0.136
  9.230449    4.083   4.903   4.028   4.105   1.313   1.178     0.459     1.176     2.036    7.585    5.139    4.793    3.071   0.136
  9.255273    4.045   4.850   4.000   4.069   1.314   1.179     0.459     1.183     2.046    7.587    5.114    4.774    3.055   0.135
  9.278753    4.005   4.794   3.972   4.031   1.316   1.180     0.461     1.193     2.055    7.590    5.089    4.755    3.039   0.135
  9.301030    3.969   4.734   3.947   3.992   1.318   1.181     0.465     1.207     2.059    7.593    5.069    4.741    3.028   0.135
  9.322219    3.939   4.687   3.926   3.963   1.320   1.183     0.469     1.223     2.063    7.596    5.056    4.729    3.020   0.135
  9.342422    3.909   4.642   3.904   3.933   1.321   1.184     0.473     1.237     2.066    7.599    5.040    4.715    3.011   0.135
  9.361728    3.871   4.590   3.877   3.899   1.323   1.185     0.474     1.247     2.069    7.601    5.019    4.696    2.999   0.135
  9.380211    3.866   4.580   3.873   3.893   1.323   1.185     0.472     1.249     2.073    7.602    5.018    4.693    2.999   0.135
  9.397940    3.889   4.610   3.889   3.912   1.322   1.184     0.474     1.256     2.080    7.603    5.030    4.701    3.008   0.135
  9.414973    3.871   4.592   3.875   3.897   1.322   1.184     0.477     1.263     2.081    7.600    5.019    4.691    3.003   0.135
  9.439333    3.802   4.512   3.821   3.840   1.325   1.186     0.480     1.269     2.078    7.603    4.977    4.656    2.980   0.135
  9.477121    3.672   4.364   3.721   3.731   1.329   1.190     0.484     1.278     2.074    7.607    4.894    4.589    2.934   0.135
  9.511884    3.488   4.150   3.580   3.580   1.335   1.195     0.488     1.292     2.071    7.612    4.778    4.494    2.868   0.135
  9.544068    3.298   3.927   3.440   3.427   1.341   1.201     0.494     1.309     2.073    7.615    4.658    4.402    2.798   0.136
  9.574031    3.125   3.721   3.313   3.288   1.347   1.206     0.501     1.334     2.082    7.616    4.548    4.318    2.734   0.137
  9.602060    2.973   3.540   3.203   3.166   1.352   1.212     0.509     1.361     2.094    7.617    4.453    4.247    2.677   0.138
  9.628389    2.846   3.383   3.111   3.062   1.357   1.217     0.517     1.386     2.106    7.616    4.376    4.191    2.631   0.140
  9.653213    2.782   3.311   3.063   3.012   1.360   1.220     0.522     1.405     2.107    7.614    4.335    4.162    2.606   0.141
  9.676694    2.714   3.232   3.012   2.960   1.364   1.223     0.519     1.399     2.064    7.615    4.293    4.130    2.579   0.141
  9.698970    2.668   3.178   2.979   2.925   1.367   1.225     0.514     1.389     2.018    7.615    4.267    4.111    2.560   0.142
  9.720160    2.607   3.107   2.933   2.879   1.370   1.228     0.507     1.375     1.969    7.615    4.231    4.083    2.536   0.143
  9.740363    2.520   3.009   2.869   2.815   1.373   1.231     0.499     1.356     1.917    7.615    4.178    4.042    2.501   0.144
  9.759667    2.426   2.905   2.801   2.747   1.376   1.234     0.490     1.333     1.863    7.613    4.120    3.997    2.465   0.145
  9.778152    2.357   2.831   2.750   2.699   1.379   1.237     0.480     1.308     1.807    7.611    4.078    3.964    2.438   0.146
  9.795880    2.356   2.816   2.743   2.686   1.381   1.238     0.477     1.300     1.782    7.609    4.083    3.970    2.438   0.147
  9.812913    2.371   2.811   2.746   2.678   1.385   1.241     0.478     1.305     1.782    7.610    4.099    3.985    2.445   0.148
  9.829304    2.383   2.804   2.746   2.669   1.388   1.243     0.480     1.309     1.782    7.611    4.112    3.998    2.452   0.149
  9.845098    2.391   2.795   2.743   2.657   1.392   1.245     0.482     1.314     1.783    7.611    4.122    4.007    2.457   0.150
  9.860338    2.397   2.784   2.738   2.644   1.395   1.247     0.484     1.320     1.785    7.612    4.128    4.014    2.461   0.150
  9.875061    2.416   2.790   2.743   2.642   1.399   1.249     0.486     1.325     1.786    7.612    4.143    4.027    2.471   0.151
  9.889301    2.454   2.816   2.763   2.654   1.401   1.250     0.488     1.331     1.789    7.612    4.170    4.048    2.488   0.152
  9.903090    2.513   2.868   2.799   2.683   1.403   1.250     0.491     1.337     1.791    7.612    4.211    4.080    2.514   0.152
  9.916454    2.582   2.930   2.843   2.721   1.405   1.250     0.494     1.343     1.794    7.612    4.259    4.115    2.544   0.152
  9.929419    2.638   2.980   2.879   2.752   1.406   1.250     0.497     1.350     1.798    7.612    4.299    4.144    2.570   0.152
  9.942008    2.700   3.040   2.920   2.789   1.407   1.249     0.500     1.354     1.801    7.612    4.342    4.176    2.598   0.152
  9.954243    2.708   3.055   2.926   2.797   1.406   1.248     0.500     1.359     1.810    7.612    4.343    4.172    2.603   0.151
  9.966142    2.705   3.053   2.926   2.797   1.406   1.248     0.501     1.362     1.811    7.613    4.339    4.165    2.603   0.150
  9.977724    2.703   3.053   2.926   2.797   1.407   1.247     0.501     1.366     1.813    7.613    4.336    4.158    2.604   0.150
  9.989004    2.701   3.052   2.926   2.796   1.407   1.247     0.501     1.369     1.814    7.614    4.332    4.152    2.604   0.149
 10.000000    2.698   3.049   2.926   2.795   1.407   1.247     0.502     1.373     1.816    7.615    4.328    4.147    2.604   0.148
 10.010724    2.694   3.045   2.925   2.792   1.407   1.247     0.502     1.377     1.818    7.615    4.324    4.141    2.604   0.148
 10.021190    2.690   3.039   2.923   2.789   1.407   1.247     0.503     1.380     1.820    7.616    4.319    4.135    2.602   0.148
 10.031408    2.684   3.031   2.921   2.785   1.407   1.247     0.503     1.384     1.822    7.616    4.313    4.129    2.600   0.147
 10.041392    2.676   3.021   2.918   2.780   1.407   1.247     0.503     1.388     1.824    7.616    4.307    4.124    2.598   0.147
 10.051152    2.668   3.009   2.914   2.774   1.408   1.247     0.504     1.392     1.827    7.617    4.301    4.118    2.594   0.147
 10.060698    2.658   2.995   2.910   2.767   1.408   1.247     0.504     1.395     1.829    7.617    4.294    4.112    2.590   0.146
 10.070038    2.646   2.979   2.904   2.758   1.408   1.247     0.505     1.399     1.832    7.617    4.286    4.106    2.585   0.146
 10.079182    2.632   2.960   2.898   2.749   1.408   1.247     0.505     1.403     1.835    7.618    4.277    4.101    2.579   0.146
 10.088136    2.617   2.939   2.890   2.738   1.408   1.247     0.506     1.407     1.839    7.618    4.268    4.095    2.572   0.146
 10.096910    2.600   2.914   2.881   2.725   1.408   1.248     0.506     1.411     1.842    7.618    4.258    4.089    2.565   0.146
 10.105510    2.582   2.888   2.872   2.711   1.408   1.248     0.507     1.415     1.846    7.618    4.247    4.084    2.556   0.146
 10.113943    2.566   2.863   2.864   2.699   1.408   1.249     0.508     1.420     1.850    7.618    4.239    4.081    2.548   0.147
 10.122216    2.555   2.844   2.859   2.690   1.408   1.249     0.508     1.424     1.854    7.618    4.233    4.079    2.541   0.147
 10.130334    2.545   2.827   2.855   2.682   1.408   1.250     0.509     1.428     1.858    7.618    4.228    4.078    2.535   0.147
 10.138303    2.529   2.803   2.845   2.669   1.408   1.250     0.510     1.433     1.864    7.618    4.219    4.074    2.527   0.147
 10.146128    2.499   2.764   2.827   2.646   1.408   1.251     0.511     1.437     1.865    7.618    4.203    4.063    2.517   0.147
 10.153815    2.469   2.723   2.808   2.622   1.409   1.252     0.512     1.441     1.866    7.619    4.186    4.052    2.506   0.148
 10.161368    2.439   2.683   2.789   2.599   1.410   1.253     0.513     1.445     1.866    7.619    4.169    4.041    2.495   0.148
 10.168792    2.408   2.642   2.770   2.575   1.411   1.254     0.514     1.449     1.867    7.620    4.153    4.029    2.483   0.148
 10.176091    2.376   2.601   2.751   2.551   1.411   1.255     0.514     1.452     1.868    7.620    4.135    4.017    2.472   0.149
 10.183270    2.345   2.559   2.731   2.527   1.412   1.256     0.515     1.456     1.869    7.621    4.118    4.005    2.460   0.149
 10.190331    2.312   2.517   2.711   2.502   1.413   1.257     0.516     1.459     1.869    7.621    4.101    3.993    2.448   0.149
 10.197281    2.280   2.475   2.691   2.478   1.414   1.258     0.517     1.462     1.870    7.622    4.083    3.981    2.436   0.149
 10.204120    2.247   2.434   2.671   2.454   1.414   1.259     0.518     1.466     1.870    7.622    4.065    3.968    2.424   0.150
 10.210854    2.215   2.392   2.651   2.429   1.415   1.260     0.519     1.469     1.871    7.622    4.048    3.955    2.412   0.150
 10.217484    2.183   2.351   2.631   2.405   1.416   1.262     0.519     1.472     1.871    7.623    4.030    3.943    2.400   0.150
 10.224015    2.152   2.310   2.612   2.382   1.416   1.263     0.520     1.475     1.872    7.623    4.014    3.931    2.389   0.151
 10.230449    2.122   2.270   2.593   2.359   1.417   1.264     0.521     1.478     1.872    7.624    3.997    3.919    2.378   0.151
 10.236789    2.092   2.230   2.574   2.336   1.418   1.265     0.521     1.481     1.872    7.624    3.981    3.907    2.368   0.151
 10.243038    2.062   2.190   2.556   2.313   1.418   1.266     0.522     1.484     1.873    7.624    3.965    3.895    2.357   0.151
 10.249198    2.032   2.150   2.537   2.290   1.419   1.267     0.523     1.487     1.873    7.625    3.950    3.884    2.347   0.152
 10.255273    2.002   2.110   2.519   2.267   1.420   1.268     0.523     1.489     1.874    7.625    3.934    3.873    2.336   0.152
 10.261263    1.974   2.072   2.502   2.245   1.421   1.269     0.524     1.492     1.874    7.625    3.920    3.863    2.327   0.152
 10.267172    1.945   2.034   2.484   2.223   1.421   1.270     0.524     1.495     1.874    7.626    3.905    3.852    2.317   0.152
 10.273002    1.917   1.997   2.467   2.202   1.422   1.271     0.525     1.497     1.875    7.626    3.891    3.841    2.307   0.153
 10.278753    1.890   1.961   2.450   2.181   1.423   1.272     0.526     1.500     1.875    7.627    3.877    3.831    2.298   0.153
 10.284431    1.862   1.925   2.434   2.160   1.423   1.272     0.526     1.503     1.875    7.627    3.863    3.820    2.289   0.153
 10.290034    1.836   1.890   2.417   2.140   1.424   1.273     0.527     1.505     1.876    7.627    3.849    3.809    2.280   0.153
 10.295568    1.810   1.856   2.401   2.120   1.424   1.274     0.527     1.508     1.876    7.627    3.836    3.799    2.272   0.153
 10.301030    1.784   1.823   2.386   2.101   1.425   1.275     0.528     1.511     1.877    7.628    3.823    3.788    2.263   0.153
