#                                                     Thu Jun  9 07:26:44 2016
#          I------------------------------------------------------------------------------------------------------------------------I
#          I                                                                                                                        I
#          I      BC_GALAXEV  ---  MODEL PARAMETERS:   Generic file name for this model = bc2003_hr_xmiless_m82_kroup_ssp           I
#          I                                                                                                                        I
#          I      TRACKS: Padova (1994) + S. Charlot (1997). X=0.4250, Y=0.475, Z=0.1000                                            I
#          I                                                                                                                        I
#          I      S.F.R.: SSP = Zero Length Burst at t = 0                                                                          I
#          I                                                                                                                        I
#          I                                                                                                                        I
#          I      I.M.F.: Power law ( 2 segments):                                                                                  I
#          I                                                                      mass in      number                               I
#          I                                              x   from m     to m     segment    of stars      c                        I
#          I                                           0.30     0.10     0.50      0.2668      1.1434  4.4891E-01                   I
#          I                                           1.30     0.50   100.00      0.7332      0.4247  2.2446E-01                   I
#          I                                                                                                                        I
#          I                                                           totals      1.0000      1.5681  0.6377 Mo/star               I
#          I                                                                                                                        I
#          I                                                                                                                        I
#          I                                                                                                                        I
#          I                                                                                                                        I
#          I      LISTED: Rest frame properties                                                                                     I
#          I                                                                                                                        I
#          I                                                                                                                        I
#          I                              (C) 1995-2015 G. Bruzual A. & S. Charlot - All Rights Reserved                            I
#          I------------------------------------------------------------------------------------------------------------------------I
#
#    (1)       (2)     (3)     (4)     (5)     (6)     (7)      (8)       (9)       (10)     (11)     (12)     (13)     (14)    (15)
#
# Index_No.   WO-1:   WO-2:   WO-3:   WO-4:   GC-1:   4000A   DTT-Ca1   DTT-Ca2   DTT-Ca3  DTT-MgI    DM-04    DM-04    DM-04     BH:
# log-age   HdeltaA HgammaA HdeltaF HgammaF D(4000)   B4_VN  CaII8498  CaII8542  CaII8662  MgI8807  H8_3889  H9_3835 H10_3798   BH-HK
#   (yr)       (A)     (A)     (A)     (A)      .       .        (A)       (A)       (A)      (A)      (A)      (A)      (A)      (A)
  5.000000    5.853   6.309   5.095   5.246   1.033   1.011     0.227     0.596     1.838    7.342    5.048    4.645    3.579   0.087
  5.149989    5.853   6.309   5.095   5.246   1.033   1.011     0.227     0.596     1.838    7.342    5.048    4.645    3.579   0.087
  5.200002    5.853   6.309   5.095   5.246   1.033   1.011     0.227     0.596     1.838    7.342    5.048    4.645    3.579   0.087
  5.250005    5.853   6.309   5.095   5.246   1.033   1.011     0.227     0.596     1.838    7.342    5.048    4.645    3.579   0.087
  5.300008    5.853   6.309   5.095   5.246   1.033   1.011     0.227     0.596     1.838    7.342    5.048    4.645    3.579   0.087
  5.349996    5.853   6.309   5.095   5.246   1.033   1.011     0.227     0.596     1.838    7.342    5.048    4.645    3.579   0.087
  5.400002    5.853   6.309   5.095   5.246   1.033   1.011     0.227     0.596     1.838    7.342    5.048    4.645    3.579   0.087
  5.450003    5.853   6.309   5.095   5.246   1.033   1.011     0.227     0.596     1.838    7.342    5.048    4.645    3.579   0.087
  5.500003    5.853   6.309   5.095   5.246   1.033   1.011     0.227     0.596     1.838    7.342    5.048    4.645    3.579   0.087
  5.550008    5.853   6.309   5.095   5.246   1.033   1.011     0.227     0.596     1.838    7.342    5.048    4.645    3.579   0.087
  5.600003    5.853   6.309   5.095   5.246   1.033   1.011     0.227     0.596     1.838    7.342    5.048    4.645    3.579   0.087
  5.650006    5.853   6.309   5.095   5.246   1.033   1.011     0.227     0.596     1.838    7.342    5.048    4.645    3.579   0.087
  5.700002    5.853   6.309   5.095   5.246   1.033   1.011     0.227     0.596     1.838    7.342    5.048    4.645    3.579   0.087
  5.749999    5.853   6.309   5.095   5.246   1.033   1.011     0.227     0.596     1.838    7.342    5.048    4.645    3.579   0.087
  5.800002    5.853   6.309   5.095   5.246   1.033   1.011     0.227     0.596     1.838    7.342    5.048    4.645    3.579   0.087
  5.850003    5.853   6.309   5.095   5.246   1.033   1.011     0.227     0.596     1.838    7.342    5.048    4.645    3.579   0.087
  5.900001    5.837   6.295   5.083   5.235   1.032   1.011     0.229     0.594     1.831    7.343    5.034    4.634    3.572   0.086
  5.950005    5.831   6.290   5.079   5.231   1.032   1.011     0.228     0.593     1.830    7.343    5.029    4.631    3.570   0.086
  6.000000    5.834   6.289   5.080   5.230   1.032   1.011     0.226     0.593     1.834    7.343    5.031    4.632    3.572   0.086
  6.019988    5.837   6.290   5.082   5.230   1.032   1.011     0.224     0.593     1.837    7.343    5.033    4.634    3.574   0.086
  6.040009    5.841   6.291   5.086   5.231   1.032   1.011     0.223     0.594     1.841    7.343    5.037    4.637    3.577   0.086
  6.060018    5.845   6.293   5.088   5.232   1.032   1.011     0.221     0.594     1.844    7.342    5.039    4.639    3.580   0.086
  6.080013    5.847   6.295   5.090   5.233   1.032   1.011     0.221     0.594     1.846    7.342    5.042    4.641    3.581   0.087
  6.099991    5.831   6.288   5.080   5.229   1.032   1.011     0.227     0.593     1.832    7.343    5.030    4.631    3.571   0.086
  6.120014    5.826   6.284   5.076   5.227   1.031   1.011     0.228     0.592     1.830    7.343    5.025    4.628    3.568   0.086
  6.140005    5.822   6.281   5.073   5.224   1.031   1.011     0.228     0.592     1.828    7.344    5.022    4.625    3.566   0.086
  6.159988    5.818   6.278   5.070   5.223   1.031   1.011     0.229     0.591     1.827    7.344    5.019    4.623    3.564   0.086
  6.180011    5.816   6.276   5.068   5.221   1.031   1.011     0.229     0.591     1.826    7.344    5.017    4.621    3.563   0.086
  6.200002    5.814   6.274   5.067   5.220   1.031   1.010     0.229     0.591     1.826    7.344    5.015    4.620    3.562   0.086
  6.220004    5.813   6.273   5.066   5.219   1.031   1.010     0.228     0.590     1.827    7.344    5.015    4.619    3.562   0.086
  6.240000    5.824   6.281   5.076   5.225   1.031   1.011     0.225     0.591     1.835    7.344    5.025    4.627    3.569   0.086
  6.260000    5.828   6.283   5.078   5.226   1.031   1.011     0.224     0.591     1.838    7.344    5.028    4.629    3.571   0.086
  6.280009    5.817   6.275   5.070   5.220   1.031   1.010     0.226     0.590     1.831    7.344    5.019    4.622    3.565   0.086
  6.300008    5.808   6.269   5.063   5.215   1.031   1.010     0.227     0.589     1.826    7.344    5.011    4.616    3.560   0.086
  6.320001    5.801   6.263   5.058   5.210   1.030   1.010     0.228     0.588     1.823    7.345    5.005    4.611    3.556   0.086
  6.340008    5.797   6.260   5.055   5.208   1.030   1.010     0.227     0.587     1.823    7.345    5.001    4.609    3.555   0.086
  6.360006    5.795   6.258   5.053   5.206   1.030   1.010     0.227     0.586     1.822    7.345    5.000    4.607    3.554   0.086
  6.379994    5.794   6.257   5.053   5.206   1.030   1.010     0.226     0.586     1.824    7.345    4.999    4.607    3.554   0.086
  6.400002    5.796   6.258   5.055   5.206   1.030   1.010     0.225     0.586     1.826    7.345    5.001    4.609    3.555   0.086
  6.420005    5.789   6.252   5.050   5.202   1.030   1.010     0.225     0.585     1.825    7.346    4.996    4.604    3.552   0.086
  6.439995    5.783   6.247   5.045   5.198   1.029   1.010     0.225     0.584     1.824    7.346    4.991    4.600    3.549   0.085
  6.459995    5.776   6.242   5.040   5.194   1.029   1.010     0.226     0.583     1.820    7.346    4.985    4.596    3.546   0.085
  6.480007    5.772   6.238   5.037   5.191   1.029   1.009     0.226     0.582     1.819    7.346    4.981    4.593    3.544   0.085
  6.500003    5.769   6.234   5.035   5.188   1.029   1.009     0.224     0.581     1.818    7.347    4.979    4.591    3.543   0.085
  6.519999    5.768   6.233   5.035   5.187   1.029   1.009     0.224     0.580     1.819    7.347    4.979    4.591    3.543   0.085
  6.540004    5.763   6.228   5.032   5.184   1.028   1.009     0.224     0.579     1.817    7.347    4.975    4.588    3.541   0.085
  6.560002    5.756   6.223   5.028   5.180   1.028   1.009     0.224     0.578     1.814    7.348    4.971    4.584    3.538   0.085
  6.580001    5.758   6.223   5.030   5.181   1.028   1.009     0.223     0.577     1.814    7.348    4.973    4.585    3.539   0.085
  6.600003    5.761   6.225   5.033   5.183   1.028   1.009     0.223     0.577     1.815    7.348    4.977    4.588    3.541   0.085
  6.620001    5.750   6.216   5.026   5.176   1.028   1.009     0.223     0.574     1.810    7.349    4.969    4.581    3.537   0.085
  6.640004    5.746   6.212   5.024   5.174   1.027   1.008     0.223     0.573     1.808    7.350    4.967    4.580    3.536   0.084
  6.660002    5.741   6.206   5.021   5.170   1.027   1.008     0.222     0.571     1.806    7.350    4.965    4.577    3.535   0.084
  6.680000    5.736   6.201   5.019   5.166   1.027   1.008     0.222     0.569     1.804    7.351    4.962    4.574    3.533   0.084
  6.700002    5.729   6.196   5.015   5.163   1.027   1.008     0.222     0.567     1.800    7.351    4.957    4.570    3.530   0.084
  6.720002    5.724   6.190   5.012   5.159   1.026   1.008     0.221     0.565     1.798    7.352    4.954    4.567    3.529   0.084
  6.739999    5.688   6.159   4.987   5.136   1.025   1.007     0.220     0.564     1.798    7.353    4.924    4.545    3.516   0.083
  6.760000    5.658   6.134   4.966   5.116   1.024   1.007     0.220     0.561     1.794    7.354    4.901    4.528    3.507   0.083
  6.780000    5.632   6.113   4.949   5.100   1.024   1.006     0.219     0.559     1.790    7.354    4.882    4.514    3.500   0.082
  6.800002    5.603   6.088   4.928   5.080   1.023   1.006     0.219     0.556     1.783    7.355    4.858    4.496    3.491   0.082
  6.819998    5.574   6.065   4.908   5.062   1.022   1.006     0.219     0.553     1.775    7.356    4.835    4.479    3.481   0.081
  6.839999    5.544   6.040   4.887   5.042   1.021   1.005     0.219     0.549     1.769    7.358    4.812    4.462    3.472   0.081
  6.860003    5.513   6.013   4.866   5.022   1.020   1.005     0.216     0.547     1.773    7.359    4.788    4.444    3.462   0.080
  6.880002    5.478   5.984   4.841   4.999   1.019   1.004     0.213     0.544     1.775    7.360    4.761    4.423    3.450   0.080
  6.900001    5.445   5.955   4.817   4.977   1.018   1.004     0.210     0.541     1.775    7.362    4.735    4.404    3.439   0.079
  6.919998    5.417   5.920   4.798   4.953   1.017   1.003     0.207     0.537     1.774    7.364    4.712    4.387    3.432   0.078
  6.939998    5.365   5.869   4.760   4.915   1.016   1.002     0.204     0.533     1.773    7.366    4.667    4.354    3.414   0.078
  6.960000    5.304   5.810   4.714   4.871   1.014   1.001     0.200     0.528     1.771    7.368    4.615    4.315    3.391   0.077
  6.979999    5.242   5.751   4.671   4.826   1.012   1.000     0.196     0.523     1.768    7.371    4.564    4.277    3.372   0.076
  7.000000    5.182   5.694   4.630   4.784   1.010   1.000     0.190     0.518     1.774    7.373    4.517    4.241    3.354   0.075
  7.019988    5.118   5.633   4.585   4.739   1.009   0.999     0.185     0.512     1.777    7.376    4.466    4.203    3.334   0.073
  7.040009    5.156   5.657   4.617   4.765   1.012   1.001     0.283     0.772     1.705    6.886    4.510    4.235    3.360   0.075
  7.060018    5.225   5.715   4.673   4.814   1.016   1.003     0.304     0.865     1.409    6.586    4.580    4.287    3.400   0.076
  7.080013    5.305   5.785   4.737   4.871   1.019   1.004     0.319     0.913     1.424    6.540    4.656    4.343    3.441   0.078
  7.099991    5.396   5.864   4.808   4.937   1.023   1.006     0.320     0.924     1.456    6.542    4.739    4.405    3.486   0.080
  7.119981    5.493   5.949   4.883   5.006   1.027   1.008     0.321     0.936     1.491    6.546    4.827    4.470    3.533   0.081
  7.140005    5.594   6.038   4.961   5.078   1.031   1.010     0.323     0.948     1.529    6.552    4.917    4.538    3.582   0.083
  7.159988    5.699   6.131   5.041   5.153   1.035   1.012     0.327     0.960     1.565    6.561    5.009    4.607    3.631   0.085
  7.180011    5.809   6.229   5.123   5.230   1.039   1.014     0.332     0.972     1.602    6.573    5.101    4.679    3.680   0.087
  7.200002    5.921   6.329   5.204   5.307   1.044   1.016     0.338     0.985     1.644    6.589    5.193    4.749    3.728   0.089
  7.220004    6.022   6.422   5.276   5.377   1.047   1.018     0.344     0.992     1.701    6.616    5.273    4.812    3.770   0.090
  7.240000    6.107   6.498   5.337   5.436   1.051   1.020     0.345     0.988     1.749    6.658    5.339    4.864    3.805   0.092
  7.260000    6.194   6.576   5.399   5.496   1.054   1.021     0.340     0.970     1.738    6.687    5.408    4.918    3.842   0.093
  7.280009    6.285   6.658   5.463   5.559   1.058   1.023     0.341     0.966     1.699    6.682    5.481    4.976    3.882   0.095
  7.300008    6.387   6.750   5.536   5.629   1.062   1.025     0.342     0.961     1.655    6.678    5.562    5.041    3.926   0.097
  7.320001    6.498   6.850   5.615   5.705   1.066   1.027     0.343     0.954     1.606    6.675    5.650    5.112    3.975   0.098
  7.340008    6.608   6.951   5.695   5.781   1.070   1.029     0.345     0.944     1.548    6.672    5.736    5.182    4.022   0.100
  7.360006    6.700   7.036   5.758   5.843   1.074   1.031     0.342     0.926     1.496    6.675    5.807    5.240    4.061   0.102
  7.379994    6.776   7.106   5.811   5.894   1.077   1.032     0.340     0.908     1.472    6.694    5.869    5.289    4.094   0.103
  7.400002    6.857   7.180   5.866   5.947   1.080   1.034     0.340     0.893     1.457    6.719    5.934    5.341    4.130   0.104
  7.420005    6.940   7.256   5.923   6.001   1.084   1.036     0.341     0.883     1.419    6.726    6.004    5.396    4.169   0.106
  7.439995    7.018   7.327   5.976   6.053   1.088   1.038     0.342     0.874     1.378    6.731    6.073    5.450    4.207   0.107
  7.462398    7.106   7.407   6.036   6.110   1.092   1.040     0.344     0.863     1.327    6.738    6.151    5.511    4.249   0.109
  7.477121    7.165   7.461   6.075   6.148   1.095   1.041     0.344     0.856     1.294    6.744    6.204    5.551    4.278   0.110
  7.491362    7.222   7.512   6.112   6.185   1.098   1.043     0.343     0.849     1.263    6.749    6.256    5.591    4.306   0.111
  7.505150    7.276   7.561   6.147   6.220   1.101   1.045     0.342     0.841     1.234    6.755    6.306    5.631    4.333   0.112
  7.518514    7.328   7.608   6.180   6.253   1.105   1.046     0.340     0.834     1.205    6.762    6.355    5.668    4.359   0.114
  7.531479    7.377   7.652   6.211   6.284   1.108   1.048     0.337     0.826     1.177    6.769    6.402    5.704    4.385   0.115
  7.544068    7.421   7.692   6.237   6.311   1.111   1.050     0.334     0.819     1.150    6.776    6.445    5.735    4.406   0.116
  7.556303    7.456   7.724   6.256   6.331   1.114   1.051     0.330     0.811     1.127    6.785    6.482    5.762    4.425   0.117
  7.568202    7.490   7.754   6.273   6.350   1.117   1.053     0.327     0.805     1.109    6.794    6.518    5.787    4.442   0.118
  7.579783    7.521   7.781   6.290   6.369   1.120   1.055     0.325     0.801     1.095    6.800    6.554    5.812    4.460   0.119
  7.591064    7.547   7.801   6.307   6.387   1.123   1.055     0.323     0.797     1.083    6.807    6.588    5.836    4.481   0.120
  7.602060    7.572   7.821   6.323   6.405   1.125   1.056     0.322     0.795     1.072    6.814    6.621    5.861    4.502   0.121
  7.628389    7.636   7.873   6.364   6.449   1.131   1.059     0.318     0.793     1.033    6.821    6.700    5.918    4.550   0.123
  7.653213    7.704   7.930   6.408   6.496   1.137   1.061     0.312     0.785     1.003    6.841    6.777    5.976    4.597   0.125
  7.676693    7.772   7.988   6.450   6.543   1.143   1.064     0.305     0.777     0.978    6.862    6.849    6.031    4.641   0.127
  7.698970    7.835   8.042   6.487   6.584   1.149   1.067     0.297     0.769     0.957    6.885    6.912    6.080    4.679   0.129
  7.720160    7.898   8.096   6.525   6.627   1.154   1.070     0.290     0.762     0.936    6.909    6.973    6.128    4.716   0.131
  7.740363    7.966   8.155   6.565   6.670   1.160   1.073     0.283     0.755     0.914    6.936    7.030    6.174    4.750   0.133
  7.756545    8.026   8.208   6.601   6.709   1.164   1.075     0.277     0.749     0.896    6.959    7.080    6.215    4.779   0.134
  7.806546    8.204   8.366   6.705   6.820   1.177   1.083     0.256     0.726     0.846    7.047    7.212    6.328    4.854   0.140
  7.856548    8.345   8.485   6.798   6.918   1.187   1.088     0.248     0.723     0.857    7.112    7.308    6.421    4.921   0.144
  7.906545    8.520   8.626   6.912   7.020   1.199   1.095     0.250     0.750     0.881    7.125    7.442    6.548    5.002   0.148
  7.956543    8.728   8.794   7.048   7.139   1.212   1.103     0.252     0.780     0.902    7.140    7.593    6.694    5.089   0.153
  8.006552    8.960   8.977   7.204   7.273   1.227   1.112     0.257     0.813     0.924    7.159    7.763    6.861    5.188   0.158
  8.056561    9.216   9.176   7.371   7.414   1.245   1.123     0.267     0.854     0.953    7.184    7.958    7.052    5.293   0.165
  8.106531    9.474   9.370   7.538   7.551   1.265   1.135     0.283     0.907     0.995    7.217    8.172    7.256    5.400   0.172
  8.156549    9.733   9.571   7.689   7.670   1.288   1.149     0.302     0.965     1.052    7.259    8.404    7.460    5.491   0.180
  8.206556    9.954   9.748   7.805   7.764   1.311   1.163     0.330     1.042     1.151    7.288    8.615    7.641    5.560   0.187
  8.256550   10.121   9.866   7.876   7.816   1.337   1.178     0.364     1.151     1.265    7.309    8.814    7.808    5.615   0.194
  8.306554   10.281   9.973   7.929   7.846   1.366   1.197     0.394     1.263     1.389    7.331    9.008    7.970    5.650   0.202
  8.356543   10.341   9.976   7.904   7.807   1.398   1.218     0.429     1.396     1.544    7.359    9.125    8.072    5.637   0.211
  8.406540   10.245   9.812   7.773   7.671   1.425   1.238     0.472     1.554     1.736    7.391    9.103    8.069    5.551   0.217
  8.456549   10.058   9.553   7.579   7.481   1.453   1.259     0.491     1.631     1.820    7.419    9.026    8.025    5.430   0.224
  8.506546    9.783   9.195   7.325   7.235   1.484   1.284     0.529     1.735     1.917    7.428    8.892    7.947    5.270   0.231
  8.556543    9.398   8.711   7.000   6.924   1.518   1.310     0.568     1.840     2.013    7.439    8.688    7.826    5.070   0.238
  8.606543    8.880   8.077   6.602   6.545   1.553   1.338     0.615     1.959     2.120    7.450    8.389    7.650    4.833   0.244
  8.656549    8.285   7.322   6.180   6.108   1.584   1.366     0.671     2.098     2.246    7.464    8.027    7.462    4.583   0.250
  8.706547    7.626   6.480   5.771   5.639   1.604   1.385     0.737     2.254     2.397    7.477    7.632    7.282    4.363   0.253
  8.756545    6.824   5.466   5.296   5.076   1.625   1.407     0.804     2.412     2.540    7.488    7.151    7.080    4.124   0.256
  8.806546    5.823   4.249   4.716   4.393   1.650   1.434     0.833     2.478     2.561    7.495    6.563    6.831    3.842   0.259
  8.856547    4.653   2.828   4.045   3.594   1.678   1.466     0.860     2.553     2.590    7.502    5.862    6.524    3.505   0.262
  8.906550    3.353   1.247   3.327   2.692   1.717   1.511     0.881     2.626     2.620    7.507    5.085    6.217    3.145   0.267
  8.956548    1.987  -0.426   2.601   1.725   1.776   1.574     0.894     2.694     2.654    7.511    4.286    5.922    2.746   0.272
  9.006552    0.969  -1.659   2.100   0.981   1.837   1.636     0.902     2.750     2.684    7.510    3.765    5.693    2.454   0.275
  9.056561    0.224  -2.516   1.774   0.459   1.906   1.703     0.900     2.768     2.678    7.498    3.511    5.519    2.297   0.278
  9.106565   -0.657  -3.431   1.402  -0.111   1.990   1.786     0.882     2.731     2.601    7.485    3.200    5.325    2.144   0.283
  9.156549   -1.546  -4.357   1.032  -0.667   2.083   1.873     0.869     2.692     2.534    7.475    2.861    5.188    2.018   0.287
  9.206556   -1.832  -4.613   0.898  -0.838   2.129   1.911     0.844     2.612     2.419    7.462    2.816    5.209    2.037   0.288
  9.225309   -2.126  -4.990   0.761  -1.063   2.169   1.945     0.833     2.603     2.384    7.464    2.771    5.142    1.990   0.289
  9.230449   -2.312  -5.198   0.678  -1.187   2.193   1.967     0.808     2.533     2.281    7.463    2.726    5.086    1.964   0.290
  9.255273   -2.708  -5.560   0.497  -1.446   2.240   2.009     0.712     2.232     1.903    7.371    2.624    4.929    1.940   0.290
  9.278753   -2.821  -5.599   0.440  -1.512   2.241   2.013     0.669     2.080     1.722    7.334    2.590    4.876    1.903   0.289
  9.301030   -2.914  -5.594   0.409  -1.544   2.233   2.011     0.681     2.078     1.750    7.325    2.569    4.846    1.865   0.287
  9.322219   -3.147  -5.818   0.322  -1.678   2.257   2.032     0.719     2.193     1.884    7.394    2.527    4.834    1.823   0.287
  9.342422   -3.379  -6.032   0.225  -1.815   2.285   2.056     0.712     2.179     1.860    7.394    2.466    4.789    1.817   0.288
  9.361728   -3.615  -6.248   0.127  -1.948   2.314   2.081     0.708     2.168     1.844    7.395    2.439    4.746    1.815   0.289
  9.380211   -3.814  -6.418   0.044  -2.054   2.339   2.101     0.702     2.155     1.825    7.395    2.396    4.729    1.824   0.290
  9.397940   -4.007  -6.572  -0.031  -2.149   2.366   2.123     0.697     2.143     1.808    7.396    2.370    4.719    1.850   0.291
  9.414973   -4.198  -6.720  -0.104  -2.238   2.392   2.144     0.694     2.134     1.797    7.398    2.358    4.702    1.871   0.293
  9.439333   -4.440  -6.892  -0.192  -2.343   2.421   2.167     0.689     2.122     1.781    7.404    2.338    4.669    1.902   0.293
  9.477121   -4.704  -7.045  -0.277  -2.444   2.446   2.185     0.678     2.092     1.743    7.412    2.324    4.578    1.924   0.292
  9.511884   -4.837  -7.100  -0.309  -2.477   2.458   2.192     0.667     2.065     1.708    7.421    2.315    4.503    1.939   0.290
  9.544068   -4.985  -7.193  -0.359  -2.532   2.474   2.203     0.659     2.044     1.680    7.434    2.282    4.427    1.947   0.288
  9.574031   -5.152  -7.325  -0.419  -2.611   2.505   2.227     0.654     2.038     1.663    7.441    2.252    4.378    1.961   0.288
  9.602060   -5.329  -7.480  -0.482  -2.698   2.538   2.252     0.647     2.028     1.640    7.444    2.249    4.335    1.981   0.289
  9.628389   -5.471  -7.618  -0.530  -2.762   2.564   2.272     0.642     2.021     1.622    7.447    2.286    4.312    2.004   0.289
  9.653213   -5.592  -7.753  -0.569  -2.817   2.586   2.289     0.638     2.018     1.608    7.451    2.344    4.301    2.026   0.290
  9.676694   -5.713  -7.896  -0.609  -2.870   2.609   2.306     0.636     2.018     1.598    7.456    2.399    4.300    2.055   0.291
  9.698970   -5.285  -7.573  -0.414  -2.632   2.541   2.243     0.649     2.057     1.643    7.464    2.772    4.529    2.239   0.287
  9.720160   -2.887  -5.457   0.674  -1.326   2.183   1.926     0.702     2.174     1.809    7.476    4.009    5.229    2.903   0.266
  9.740363   -1.462  -4.099   1.346  -0.484   2.002   1.771     0.747     2.276     1.955    7.487    4.614    5.502    3.231   0.252
  9.759667   -0.517  -3.148   1.806   0.103   1.891   1.676     0.785     2.364     2.081    7.496    4.969    5.636    3.427   0.243
  9.778152    0.155  -2.446   2.140   0.528   1.815   1.612     0.816     2.439     2.187    7.503    5.190    5.707    3.553   0.235
  9.795880    0.641  -1.920   2.389   0.840   1.757   1.564     0.840     2.499     2.275    7.509    5.335    5.740    3.637   0.228
  9.812913    1.000  -1.521   2.582   1.070   1.712   1.527     0.858     2.546     2.342    7.514    5.433    5.746    3.699   0.222
  9.829304    1.269  -1.211   2.737   1.238   1.673   1.495     0.867     2.578     2.388    7.516    5.495    5.734    3.746   0.216
  9.845098    1.468  -0.974   2.862   1.354   1.639   1.468     0.868     2.594     2.411    7.517    5.532    5.704    3.782   0.209
  9.860338    1.537  -0.885   2.922   1.379   1.617   1.450     0.870     2.616     2.440    7.521    5.535    5.662    3.797   0.204
  9.875061    1.664  -0.744   2.989   1.462   1.602   1.438     0.875     2.633     2.463    7.524    5.564    5.656    3.815   0.202
  9.889301    1.777  -0.620   3.049   1.534   1.588   1.427     0.880     2.650     2.485    7.527    5.591    5.652    3.832   0.200
  9.903090    1.879  -0.506   3.103   1.599   1.577   1.417     0.884     2.665     2.505    7.529    5.615    5.649    3.847   0.198
  9.916454    1.973  -0.401   3.153   1.658   1.567   1.409     0.888     2.679     2.522    7.531    5.636    5.647    3.862   0.196
  9.929419    2.055  -0.310   3.198   1.709   1.558   1.402     0.891     2.692     2.539    7.533    5.656    5.646    3.875   0.195
  9.942008    2.125  -0.235   3.237   1.751   1.550   1.395     0.894     2.706     2.556    7.535    5.675    5.645    3.887   0.194
  9.954243    2.183  -0.174   3.270   1.785   1.544   1.390     0.898     2.718     2.572    7.537    5.694    5.643    3.897   0.193
  9.966142    2.230  -0.128   3.298   1.811   1.538   1.386     0.901     2.731     2.588    7.538    5.713    5.642    3.906   0.192
  9.977724    2.267  -0.095   3.322   1.829   1.534   1.382     0.903     2.743     2.603    7.539    5.731    5.642    3.916   0.191
  9.989004    2.296  -0.072   3.341   1.840   1.531   1.380     0.906     2.754     2.617    7.539    5.746    5.643    3.924   0.190
 10.000000    2.312  -0.065   3.355   1.843   1.529   1.378     0.908     2.765     2.631    7.540    5.761    5.644    3.931   0.190
 10.010724    2.318  -0.070   3.365   1.838   1.528   1.377     0.910     2.774     2.644    7.540    5.776    5.646    3.938   0.190
 10.021190    2.319  -0.083   3.372   1.827   1.527   1.377     0.911     2.783     2.654    7.540    5.791    5.650    3.944   0.190
 10.031408    2.312  -0.106   3.376   1.810   1.528   1.377     0.911     2.791     2.663    7.540    5.806    5.655    3.950   0.189
 10.041392    2.296  -0.141   3.377   1.784   1.529   1.378     0.909     2.794     2.665    7.537    5.819    5.662    3.956   0.189
 10.051152    2.355  -0.062   3.407   1.822   1.518   1.369     0.903     2.779     2.649    7.533    5.810    5.638    3.954   0.187
 10.060698    2.401   0.008   3.430   1.854   1.506   1.361     0.898     2.764     2.634    7.529    5.788    5.605    3.946   0.185
 10.070038    2.443   0.072   3.450   1.881   1.495   1.353     0.892     2.749     2.618    7.524    5.765    5.575    3.938   0.183
 10.079182    2.478   0.127   3.466   1.903   1.486   1.346     0.886     2.734     2.601    7.520    5.742    5.547    3.929   0.181
 10.088136    2.510   0.176   3.481   1.921   1.478   1.340     0.879     2.718     2.582    7.515    5.719    5.521    3.920   0.179
 10.096910    2.535   0.216   3.491   1.934   1.470   1.335     0.873     2.702     2.563    7.511    5.697    5.496    3.910   0.177
 10.105510    2.553   0.245   3.498   1.940   1.464   1.331     0.866     2.686     2.544    7.507    5.674    5.472    3.899   0.176
 10.113943    2.562   0.263   3.501   1.939   1.459   1.327     0.859     2.669     2.523    7.503    5.652    5.449    3.887   0.175
 10.122216    2.563   0.269   3.499   1.931   1.454   1.324     0.852     2.652     2.502    7.499    5.630    5.428    3.874   0.173
 10.130334    2.554   0.263   3.492   1.915   1.451   1.322     0.845     2.635     2.480    7.495    5.607    5.406    3.860   0.172
 10.138303    2.534   0.241   3.479   1.890   1.450   1.321     0.838     2.618     2.458    7.491    5.584    5.386    3.844   0.172
 10.146128    2.543   0.253   3.481   1.888   1.446   1.318     0.831     2.602     2.436    7.486    5.568    5.370    3.834   0.171
 10.153815    2.587   0.304   3.504   1.918   1.442   1.315     0.828     2.596     2.428    7.484    5.574    5.373    3.840   0.170
 10.161368    2.630   0.354   3.527   1.948   1.438   1.313     0.826     2.591     2.421    7.483    5.580    5.375    3.846   0.170
 10.168792    2.672   0.401   3.548   1.976   1.435   1.310     0.824     2.585     2.414    7.481    5.587    5.378    3.851   0.169
 10.176091    2.711   0.446   3.569   2.003   1.432   1.307     0.821     2.580     2.407    7.479    5.593    5.380    3.856   0.169
 10.183270    2.748   0.489   3.589   2.029   1.429   1.305     0.819     2.575     2.401    7.477    5.599    5.382    3.861   0.168
 10.190331    2.784   0.531   3.608   2.054   1.426   1.302     0.817     2.570     2.395    7.475    5.604    5.384    3.865   0.168
 10.197281    2.819   0.572   3.626   2.079   1.423   1.300     0.815     2.565     2.389    7.473    5.610    5.386    3.870   0.168
 10.204120    2.853   0.611   3.644   2.102   1.420   1.298     0.814     2.560     2.384    7.471    5.616    5.388    3.874   0.167
 10.210854    2.888   0.650   3.661   2.126   1.417   1.296     0.812     2.555     2.379    7.470    5.621    5.390    3.878   0.167
 10.217484    2.922   0.688   3.678   2.149   1.415   1.293     0.810     2.550     2.374    7.468    5.625    5.392    3.882   0.167
 10.224015    2.955   0.726   3.695   2.172   1.412   1.291     0.808     2.546     2.368    7.466    5.630    5.394    3.886   0.166
 10.230449    2.987   0.762   3.711   2.194   1.409   1.289     0.806     2.541     2.363    7.464    5.635    5.395    3.890   0.166
 10.236789    3.017   0.798   3.727   2.215   1.407   1.287     0.805     2.536     2.358    7.462    5.640    5.397    3.894   0.166
 10.243038    3.048   0.834   3.742   2.237   1.405   1.285     0.803     2.531     2.353    7.460    5.645    5.399    3.897   0.165
 10.249198    3.080   0.872   3.759   2.260   1.402   1.283     0.803     2.533     2.356    7.462    5.650    5.402    3.901   0.165
 10.255273    3.061   0.851   3.747   2.244   1.401   1.283     0.804     2.537     2.362    7.460    5.629    5.383    3.891   0.164
 10.261263    3.102   0.920   3.763   2.280   1.392   1.276     0.805     2.540     2.369    7.458    5.606    5.355    3.879   0.163
 10.267172    3.142   0.986   3.779   2.315   1.384   1.271     0.806     2.543     2.376    7.457    5.584    5.329    3.869   0.161
 10.273002    3.182   1.051   3.795   2.349   1.377   1.265     0.807     2.547     2.383    7.456    5.564    5.306    3.859   0.160
 10.278753    3.219   1.113   3.811   2.381   1.369   1.260     0.808     2.550     2.390    7.454    5.546    5.284    3.850   0.159
 10.284431    3.257   1.174   3.826   2.413   1.363   1.255     0.809     2.553     2.396    7.453    5.529    5.263    3.841   0.157
 10.290034    3.293   1.232   3.841   2.444   1.356   1.251     0.810     2.556     2.403    7.451    5.513    5.244    3.833   0.156
 10.295568    3.328   1.290   3.856   2.475   1.350   1.246     0.810     2.559     2.410    7.450    5.498    5.226    3.826   0.155
 10.301030    3.363   1.346   3.870   2.505   1.344   1.242     0.811     2.562     2.416    7.448    5.485    5.210    3.820   0.154
