#                                                     Thu Jun  9 00:55:43 2016
#          I------------------------------------------------------------------------------------------------------------------------I
#          I                                                                                                                        I
#          I      BC_GALAXEV  ---  MODEL PARAMETERS:   Generic file name for this model = bc2003_hr_xmiless_m32_kroup_ssp           I
#          I                                                                                                                        I
#          I      TRACKS: Padova (1994) + S. Charlot (1997). X=0.7686, Y=0.231, Z=0.0004                                            I
#          I                                                                                                                        I
#          I      S.F.R.: SSP = Zero Length Burst at t = 0                                                                          I
#          I                                                                                                                        I
#          I                                                                                                                        I
#          I      I.M.F.: Power law ( 2 segments):                                                                                  I
#          I                                                                      mass in      number                               I
#          I                                              x   from m     to m     segment    of stars      c                        I
#          I                                           0.30     0.10     0.50      0.2668      1.1434  4.4891E-01                   I
#          I                                           1.30     0.50   100.00      0.7332      0.4247  2.2446E-01                   I
#          I                                                                                                                        I
#          I                                                           totals      1.0000      1.5681  0.6377 Mo/star               I
#          I                                                                                                                        I
#          I                                                                                                                        I
#          I                                                                                                                        I
#          I                                                                                                                        I
#          I      LISTED: Rest frame properties                                                                                     I
#          I                                                                                                                        I
#          I                                                                                                                        I
#          I                              (C) 1995-2015 G. Bruzual A. & S. Charlot - All Rights Reserved                            I
#          I------------------------------------------------------------------------------------------------------------------------I
#
#    (1)         (2)       (3)       (4)       (5)       (6)
#
# Index_No.     WO-1:     WO-2:     WO-3:     WO-4:     GC-1:
# log-age     HdeltaA   HgammaA   HdeltaF   HgammaF   D(4000)
#   (yr)         (A)       (A)       (A)       (A)        . 
  5.000000      0.186     0.228     0.156    -0.325     0.825
  5.149989      0.186     0.228     0.156    -0.325     0.825
  5.200002      0.186     0.228     0.156    -0.325     0.825
  5.250005      0.186     0.228     0.156    -0.325     0.825
  5.300008      0.186     0.228     0.156    -0.325     0.825
  5.349996      0.186     0.228     0.156    -0.325     0.825
  5.400002      0.186     0.228     0.156    -0.325     0.825
  5.450003      0.186     0.228     0.156    -0.325     0.825
  5.500003      0.186     0.228     0.156    -0.325     0.825
  5.550008      0.186     0.228     0.156    -0.325     0.825
  5.600003      0.186     0.228     0.156    -0.325     0.825
  5.650006      0.186     0.228     0.156    -0.325     0.825
  5.700002      0.186     0.228     0.156    -0.325     0.825
  5.749999      0.186     0.228     0.156    -0.325     0.825
  5.800002      0.186     0.228     0.156    -0.325     0.825
  5.850003      0.186     0.228     0.156    -0.325     0.825
  5.900001      0.186     0.228     0.156    -0.325     0.825
  5.950005      0.186     0.228     0.156    -0.325     0.825
  6.000000      0.185     0.227     0.155    -0.324     0.825
  6.019988      0.184     0.226     0.155    -0.324     0.825
  6.040009      0.183     0.226     0.154    -0.324     0.825
  6.060018      0.183     0.225     0.153    -0.323     0.825
  6.080013      0.182     0.224     0.153    -0.323     0.825
  6.099991      0.181     0.223     0.152    -0.322     0.824
  6.120014      0.180     0.222     0.151    -0.322     0.824
  6.140005      0.179     0.221     0.151    -0.321     0.824
  6.159988      0.178     0.220     0.150    -0.320     0.824
  6.180011      0.177     0.219     0.149    -0.331     0.824
  6.200002      0.175     0.218     0.148    -0.346     0.825
  6.220004      0.174     0.216     0.147    -0.361     0.825
  6.240000      0.172     0.215     0.146    -0.374     0.825
  6.260000      0.170     0.214     0.145    -0.385     0.825
  6.280009      0.167     0.211     0.143    -0.392     0.825
  6.300008      0.164     0.208     0.140    -0.395     0.826
  6.320001      0.141     0.181     0.121    -0.398     0.824
  6.340008      0.137     0.176     0.118    -0.392     0.825
  6.360006      0.131     0.169     0.113    -0.394     0.825
  6.379994      0.122     0.160     0.106    -0.393     0.825
  6.400002      0.111     0.147     0.098    -0.396     0.826
  6.420005      0.098     0.131     0.088    -0.392     0.830
  6.439995      0.081     0.112     0.075    -0.384     0.837
  6.459995      0.061     0.088     0.060    -0.359     0.853
  6.480007      0.270     0.302     0.273    -0.364     0.870
  6.500003      2.206     2.336     1.698     1.350     0.956
  6.519999      3.323     3.501     2.531     2.348     0.998
  6.540004      4.282     4.461     3.198     3.244     1.043
  6.560002      4.554     4.680     3.383     3.479     1.066
  6.580001      4.069     4.083     3.018     3.048     1.064
  6.600003      2.430     2.193     1.770     1.643     1.039
  6.620001      0.824     0.418     0.569     0.354     1.008
  6.640004      1.100     0.877     0.814     0.572     0.973
  6.660002      1.353     1.253     1.031     0.778     0.955
  6.680000      1.501     1.512     1.166     0.895     0.937
  6.700002      1.483     1.576     1.169     0.865     0.919
  6.720002      1.199     1.320     0.960     0.592     0.900
  6.739999      0.519     0.581     0.437    -0.032     0.882
  6.760000      0.527     0.590     0.443    -0.030     0.883
  6.780000      0.518     0.581     0.436    -0.042     0.884
  6.800002      0.488     0.549     0.411    -0.073     0.885
  6.819998      0.426     0.481     0.358    -0.133     0.884
  6.839999      0.284     0.329     0.241    -0.264     0.881
  6.860003      0.292     0.337     0.248    -0.263     0.883
  6.880002      0.301     0.346     0.255    -0.262     0.886
  6.900001      0.310     0.355     0.263    -0.261     0.888
  6.919998      0.320     0.365     0.272    -0.261     0.890
  6.939998      0.331     0.375     0.281    -0.261     0.893
  6.960000      0.342     0.387     0.291    -0.263     0.895
  6.979999      0.354     0.399     0.301    -0.265     0.897
  7.000000      0.368     0.412     0.312    -0.266     0.899
  7.019988      0.656     0.721     0.529    -0.027     0.909
  7.040009      1.124     1.228     0.893     0.383     0.922
  7.060018      1.532     1.661     1.212     0.735     0.934
  7.080013      1.850     1.993     1.463     1.004     0.945
  7.099991      2.076     2.221     1.643     1.186     0.953
  7.119981      2.194     2.329     1.742     1.271     0.959
  7.140005      2.182     2.294     1.742     1.236     0.963
  7.159988      2.004     2.074     1.617     1.050     0.963
  7.180011      2.010     2.074     1.629     1.036     0.965
  7.200002      2.035     2.092     1.648     1.055     0.968
  7.220004      2.080     2.128     1.682     1.087     0.972
  7.240000      2.128     2.168     1.719     1.122     0.975
  7.260000      2.176     2.208     1.756     1.159     0.979
  7.280009      2.227     2.252     1.795     1.197     0.983
  7.300008      2.276     2.295     1.834     1.234     0.987
  7.320001      2.239     2.256     1.803     1.200     0.989
  7.340008      2.327     2.340     1.873     1.274     0.994
  7.360006      2.470     2.479     1.988     1.396     1.000
  7.379994      2.618     2.625     2.109     1.523     1.006
  7.400002      2.774     2.778     2.235     1.657     1.012
  7.420005      2.935     2.938     2.367     1.797     1.018
  7.439995      3.097     3.101     2.501     1.934     1.024
  7.462398      3.279     3.284     2.652     2.086     1.030
  7.477121      3.398     3.406     2.753     2.185     1.034
  7.491362      3.513     3.525     2.850     2.281     1.037
  7.505150      3.623     3.641     2.944     2.373     1.040
  7.518514      3.679     3.705     2.999     2.419     1.041
  7.531479      3.762     3.787     3.061     2.483     1.045
  7.544068      3.833     3.859     3.117     2.547     1.048
  7.556303      3.929     3.954     3.194     2.634     1.051
  7.568202      4.024     4.049     3.270     2.720     1.054
  7.579783      4.117     4.142     3.345     2.805     1.057
  7.591064      4.207     4.231     3.417     2.885     1.060
  7.602060      4.296     4.320     3.489     2.965     1.063
  7.628389      4.527     4.551     3.676     3.176     1.069
  7.653213      4.788     4.813     3.887     3.430     1.075
  7.676693      5.055     5.084     4.105     3.694     1.081
  7.698970      5.320     5.362     4.325     3.962     1.086
  7.720160      5.511     5.549     4.480     4.154     1.091
  7.740363      5.610     5.666     4.540     4.218     1.098
  7.756545      5.700     5.766     4.600     4.280     1.102
  7.806546      5.928     6.024     4.753     4.445     1.114
  7.856548      6.095     6.173     4.862     4.562     1.127
  7.906545      6.342     6.398     5.025     4.726     1.141
  7.956543      6.535     6.576     5.136     4.818     1.155
  8.006552      6.579     6.602     5.135     4.801     1.171
  8.056561      6.679     6.611     5.196     4.833     1.190
  8.106531      6.780     6.717     5.257     4.884     1.204
  8.156549      6.773     6.731     5.241     4.834     1.217
  8.206556      6.600     6.536     5.094     4.608     1.232
  8.256550      6.509     6.439     5.028     4.479     1.245
  8.306554      6.381     6.292     4.934     4.307     1.259
  8.356543      6.195     6.099     4.803     4.085     1.274
  8.406540      6.153     6.053     4.786     4.041     1.293
  8.456549      6.311     6.184     4.924     4.223     1.320
  8.506546      6.707     6.552     5.250     4.678     1.337
  8.556543      7.352     7.168     5.768     5.395     1.350
  8.606543      7.817     7.613     6.120     5.876     1.362
  8.656549      8.187     7.966     6.397     6.255     1.373
  8.706547      8.543     8.345     6.639     6.617     1.384
  8.756545      8.737     8.538     6.729     6.793     1.396
  8.806546      8.661     8.457     6.597     6.708     1.406
  8.856547      8.344     8.122     6.281     6.448     1.411
  8.906550      7.885     7.594     5.876     6.080     1.417
  8.956548      7.686     7.196     5.689     5.822     1.434
  9.006552      7.319     6.534     5.362     5.397     1.463
  9.056561      6.818     5.680     4.917     4.852     1.498
  9.106565      7.221     6.018     5.255     5.066     1.510
  9.156549      7.201     5.927     5.228     5.000     1.526
  9.206556      7.134     5.769     5.144     4.889     1.539
  9.225309      7.018     5.580     5.042     4.768     1.547
  9.230449      6.965     5.482     4.995     4.708     1.551
  9.255273      6.791     5.229     4.852     4.547     1.560
  9.278753      6.659     5.004     4.746     4.410     1.567
  9.301030      6.642     4.934     4.730     4.366     1.572
  9.322219      6.721     5.025     4.790     4.421     1.571
  9.342422      6.807     5.106     4.852     4.469     1.571
  9.361728      6.770     5.036     4.820     4.425     1.574
  9.380211      6.725     4.963     4.786     4.380     1.577
  9.397940      6.684     4.895     4.754     4.338     1.580
  9.414973      6.655     4.846     4.733     4.308     1.582
  9.439333      6.643     4.831     4.727     4.300     1.583
  9.477121      6.446     4.592     4.587     4.157     1.589
  9.511884      6.224     4.324     4.432     3.998     1.594
  9.544068      6.055     4.139     4.320     3.889     1.596
  9.574031      5.898     3.964     4.213     3.783     1.598
  9.602060      5.728     3.770     4.095     3.663     1.599
  9.628389      5.576     3.589     3.990     3.553     1.599
  9.653213      5.447     3.430     3.904     3.456     1.598
  9.676694      5.337     3.297     3.832     3.377     1.596
  9.698970      5.224     3.153     3.757     3.292     1.595
  9.720160      5.095     2.981     3.669     3.193     1.595
  9.740363      4.970     2.814     3.586     3.098     1.594
  9.759667      4.847     2.648     3.505     3.005     1.594
  9.778152      4.730     2.490     3.429     2.917     1.594
  9.795880      4.624     2.350     3.360     2.838     1.593
  9.812913      4.537     2.234     3.304     2.773     1.593
  9.829304      4.472     2.158     3.265     2.731     1.591
  9.845098      4.407     2.073     3.223     2.682     1.590
  9.860338      4.335     1.982     3.174     2.628     1.589
  9.875061      4.267     1.898     3.127     2.576     1.589
  9.889301      4.203     1.821     3.082     2.528     1.588
  9.903090      4.144     1.751     3.039     2.483     1.587
  9.916454      4.089     1.690     2.999     2.441     1.587
  9.929419      4.040     1.638     2.961     2.403     1.586
  9.942008      3.997     1.597     2.927     2.370     1.585
  9.954243      3.963     1.569     2.898     2.342     1.584
  9.966142      3.938     1.553     2.874     2.321     1.583
  9.977724      3.919     1.542     2.855     2.304     1.583
  9.989004      3.902     1.532     2.837     2.288     1.582
 10.000000      3.892     1.529     2.826     2.277     1.581
 10.010724      3.920     1.561     2.846     2.290     1.581
 10.021190      3.947     1.591     2.865     2.301     1.581
 10.031408      3.974     1.620     2.884     2.313     1.581
 10.041392      4.001     1.650     2.903     2.325     1.582
 10.051152      4.028     1.679     2.922     2.337     1.582
 10.060698      4.056     1.708     2.942     2.350     1.582
 10.070038      4.083     1.737     2.962     2.363     1.582
 10.079182      4.110     1.766     2.983     2.376     1.583
 10.088136      4.139     1.796     3.004     2.391     1.583
 10.096910      4.168     1.825     3.026     2.405     1.583
 10.105510      4.197     1.855     3.048     2.421     1.583
 10.113943      4.227     1.884     3.071     2.436     1.583
 10.122216      4.258     1.913     3.094     2.453     1.584
 10.130334      4.289     1.943     3.119     2.470     1.584
 10.138303      4.321     1.973     3.144     2.488     1.584
 10.146128      4.355     2.002     3.170     2.506     1.584
 10.153815      4.389     2.032     3.198     2.526     1.584
 10.161368      4.423     2.063     3.226     2.547     1.585
 10.168792      4.459     2.096     3.255     2.568     1.585
 10.176091      4.495     2.131     3.285     2.591     1.585
 10.183270      4.534     2.168     3.316     2.616     1.585
 10.190331      4.535     2.173     3.323     2.619     1.585
 10.197281      4.535     2.164     3.326     2.615     1.585
 10.204120      4.534     2.155     3.328     2.612     1.585
 10.210854      4.533     2.145     3.329     2.607     1.584
 10.217484      4.530     2.135     3.330     2.603     1.584
 10.224015      4.527     2.125     3.331     2.598     1.584
 10.230449      4.524     2.113     3.331     2.593     1.584
 10.236789      4.519     2.101     3.331     2.587     1.584
 10.243038      4.514     2.088     3.331     2.581     1.584
 10.249198      4.509     2.073     3.330     2.574     1.584
 10.255273      4.503     2.058     3.329     2.567     1.584
 10.261263      4.496     2.042     3.328     2.559     1.584
 10.267172      4.488     2.026     3.326     2.551     1.584
 10.273002      4.480     2.009     3.324     2.543     1.584
 10.278753      4.471     1.991     3.321     2.534     1.584
 10.284431      4.461     1.972     3.318     2.525     1.584
 10.290034      4.451     1.953     3.315     2.515     1.584
 10.295568      4.439     1.933     3.311     2.505     1.584
 10.301030      4.428     1.913     3.307     2.495     1.583
