#                                                     Thu Jun  9 01:01:29 2016
#          I------------------------------------------------------------------------------------------------------------------------I
#          I                                                                                                                        I
#          I      BC_GALAXEV  ---  MODEL PARAMETERS:   Generic file name for this model = bc2003_hr_xmiless_m52_kroup_ssp           I
#          I                                                                                                                        I
#          I      TRACKS: Padova (1994) + S. Charlot (1997). X=0.742, Y=0.25, Z=0.008                                               I
#          I                                                                                                                        I
#          I      S.F.R.: SSP = Zero Length Burst at t = 0                                                                          I
#          I                                                                                                                        I
#          I                                                                                                                        I
#          I      I.M.F.: Power law ( 2 segments):                                                                                  I
#          I                                                                      mass in      number                               I
#          I                                              x   from m     to m     segment    of stars      c                        I
#          I                                           0.30     0.10     0.50      0.2668      1.1434  4.4891E-01                   I
#          I                                           1.30     0.50   100.00      0.7332      0.4247  2.2446E-01                   I
#          I                                                                                                                        I
#          I                                                           totals      1.0000      1.5681  0.6377 Mo/star               I
#          I                                                                                                                        I
#          I                                                                                                                        I
#          I                                                                                                                        I
#          I                                                                                                                        I
#          I      LISTED: Rest frame properties                                                                                     I
#          I                                                                                                                        I
#          I                                                                                                                        I
#          I                              (C) 1995-2015 G. Bruzual A. & S. Charlot - All Rights Reserved                            I
#          I------------------------------------------------------------------------------------------------------------------------I
#
#    (1)       (2)     (3)     (4)     (5)     (6)     (7)      (8)       (9)       (10)     (11)     (12)     (13)     (14)    (15)
#
# Index_No.   WO-1:   WO-2:   WO-3:   WO-4:   GC-1:   4000A   DTT-Ca1   DTT-Ca2   DTT-Ca3  DTT-MgI    DM-04    DM-04    DM-04     BH:
# log-age   HdeltaA HgammaA HdeltaF HgammaF D(4000)   B4_VN  CaII8498  CaII8542  CaII8662  MgI8807  H8_3889  H9_3835 H10_3798   BH-HK
#   (yr)       (A)     (A)     (A)     (A)      .       .        (A)       (A)       (A)      (A)      (A)      (A)      (A)      (A)
  5.000000    3.434   3.583   3.046   3.112   0.939   0.968     0.411     0.427     0.589    7.497    2.636    2.263    1.801   0.043
  5.149989    3.434   3.583   3.046   3.112   0.939   0.968     0.411     0.427     0.589    7.497    2.636    2.263    1.801   0.043
  5.200002    3.434   3.583   3.046   3.112   0.939   0.968     0.411     0.427     0.589    7.497    2.636    2.263    1.801   0.043
  5.250005    3.434   3.583   3.046   3.112   0.939   0.968     0.411     0.427     0.589    7.497    2.636    2.263    1.801   0.043
  5.300008    3.434   3.583   3.046   3.112   0.939   0.968     0.411     0.427     0.589    7.497    2.636    2.263    1.801   0.043
  5.349996    3.434   3.583   3.046   3.112   0.939   0.968     0.411     0.427     0.589    7.497    2.636    2.263    1.801   0.043
  5.400002    3.434   3.583   3.046   3.112   0.939   0.968     0.411     0.427     0.589    7.497    2.636    2.263    1.801   0.043
  5.450003    3.434   3.583   3.046   3.112   0.939   0.968     0.411     0.427     0.589    7.497    2.636    2.263    1.801   0.043
  5.500003    3.434   3.583   3.046   3.112   0.939   0.968     0.411     0.427     0.589    7.497    2.636    2.263    1.801   0.043
  5.550008    3.434   3.583   3.046   3.112   0.939   0.968     0.411     0.427     0.589    7.497    2.636    2.263    1.801   0.043
  5.600003    3.434   3.583   3.046   3.112   0.939   0.968     0.411     0.427     0.589    7.497    2.636    2.263    1.801   0.043
  5.650006    3.434   3.583   3.046   3.112   0.939   0.968     0.411     0.427     0.589    7.497    2.636    2.263    1.801   0.043
  5.700002    3.434   3.583   3.046   3.112   0.939   0.968     0.411     0.427     0.589    7.497    2.636    2.263    1.801   0.043
  5.749999    3.434   3.583   3.046   3.112   0.939   0.968     0.411     0.427     0.589    7.497    2.636    2.263    1.801   0.043
  5.800002    3.434   3.583   3.046   3.112   0.939   0.968     0.411     0.427     0.589    7.497    2.636    2.263    1.801   0.043
  5.850003    3.434   3.583   3.046   3.112   0.939   0.968     0.411     0.427     0.589    7.497    2.636    2.263    1.801   0.043
  5.900001    3.434   3.583   3.046   3.112   0.939   0.968     0.411     0.427     0.589    7.497    2.636    2.263    1.801   0.043
  5.950005    3.434   3.583   3.046   3.112   0.939   0.968     0.411     0.427     0.589    7.497    2.636    2.263    1.801   0.043
  6.000000    3.434   3.583   3.046   3.112   0.939   0.968     0.411     0.427     0.589    7.497    2.636    2.263    1.801   0.043
  6.019988    3.434   3.583   3.046   3.112   0.939   0.968     0.411     0.427     0.589    7.497    2.636    2.263    1.801   0.043
  6.040009    3.434   3.583   3.046   3.112   0.939   0.968     0.411     0.427     0.589    7.497    2.636    2.263    1.801   0.043
  6.060018    3.434   3.583   3.046   3.112   0.939   0.968     0.411     0.427     0.589    7.497    2.636    2.263    1.801   0.043
  6.080013    3.434   3.583   3.046   3.112   0.939   0.968     0.411     0.427     0.589    7.497    2.636    2.263    1.801   0.043
  6.099991    3.434   3.583   3.046   3.112   0.939   0.968     0.411     0.427     0.589    7.497    2.636    2.263    1.801   0.043
  6.120014    3.434   3.583   3.046   3.112   0.939   0.968     0.411     0.427     0.589    7.497    2.636    2.263    1.801   0.043
  6.140005    3.434   3.583   3.046   3.112   0.939   0.968     0.411     0.427     0.589    7.497    2.636    2.263    1.801   0.043
  6.159988    3.434   3.583   3.046   3.112   0.939   0.968     0.411     0.427     0.589    7.497    2.636    2.263    1.801   0.043
  6.180011    3.434   3.583   3.046   3.112   0.939   0.968     0.411     0.427     0.589    7.497    2.636    2.263    1.801   0.043
  6.200002    3.434   3.583   3.046   3.112   0.939   0.968     0.411     0.427     0.589    7.497    2.636    2.263    1.801   0.043
  6.220004    3.434   3.583   3.046   3.112   0.939   0.968     0.411     0.427     0.589    7.497    2.636    2.263    1.801   0.043
  6.240000    3.373   3.518   2.999   3.065   0.938   0.968     0.434     0.446     0.583    7.498    2.576    2.209    1.775   0.042
  6.260000    3.284   3.423   2.932   2.997   0.937   0.967     0.460     0.468     0.577    7.500    2.489    2.130    1.737   0.040
  6.280009    3.207   3.339   2.872   2.936   0.936   0.967     0.472     0.475     0.576    7.504    2.413    2.060    1.703   0.039
  6.300008    3.147   3.269   2.829   2.885   0.935   0.966     0.471     0.469     0.586    7.507    2.349    2.003    1.677   0.038
  6.320001    3.059   3.173   2.761   2.813   0.934   0.966     0.470     0.463     0.589    7.510    2.263    1.930    1.639   0.036
  6.340008    3.004   3.122   2.715   2.772   0.934   0.966     0.469     0.457     0.592    7.510    2.215    1.892    1.619   0.036
  6.360006    2.912   3.024   2.645   2.696   0.934   0.965     0.467     0.447     0.606    7.514    2.123    1.825    1.587   0.034
  6.379994    2.881   2.987   2.629   2.669   0.933   0.965     0.465     0.434     0.609    7.516    2.098    1.812    1.581   0.034
  6.400002    2.858   2.965   2.621   2.651   0.933   0.964     0.461     0.417     0.603    7.516    2.085    1.813    1.583   0.033
  6.420005    2.848   2.974   2.625   2.656   0.934   0.964     0.455     0.394     0.598    7.514    2.086    1.840    1.598   0.033
  6.439995    2.783   2.981   2.588   2.656   0.933   0.964     0.450     0.373     0.562    7.511    2.056    1.857    1.601   0.033
  6.459995    2.702   2.890   2.530   2.587   0.933   0.964     0.448     0.356     0.554    7.507    1.991    1.808    1.570   0.032
  6.480007    2.622   2.809   2.478   2.527   0.933   0.964     0.448     0.356     0.595    7.503    1.934    1.766    1.546   0.031
  6.500003    2.699   2.897   2.533   2.592   0.940   0.967     0.510     0.457     0.851    7.497    2.024    1.865    1.607   0.033
  6.519999    2.588   2.811   2.452   2.520   0.942   0.968     0.520     0.495     0.949    7.494    1.958    1.839    1.582   0.032
  6.540004    2.507   2.761   2.400   2.484   0.945   0.970     0.528     0.530     0.999    7.494    1.925    1.845    1.572   0.033
  6.560002    2.492   2.729   2.392   2.482   0.949   0.973     0.535     0.562     0.975    7.496    1.928    1.859    1.558   0.034
  6.580001    2.548   2.753   2.455   2.556   0.956   0.978     0.569     0.695     1.079    7.501    2.009    1.947    1.606   0.038
  6.600003    2.540   2.759   2.460   2.544   0.952   0.975     0.545     0.651     1.054    7.500    2.006    1.946    1.620   0.037
  6.620001    2.558   2.776   2.472   2.559   0.954   0.976     0.553     0.695     1.138    7.503    2.045    1.984    1.656   0.037
  6.640004    2.579   2.778   2.477   2.568   0.956   0.977     0.562     0.743     1.227    7.505    2.090    2.016    1.697   0.038
  6.660002    2.589   2.754   2.461   2.560   0.960   0.978     0.563     0.783     1.318    7.510    2.137    2.040    1.741   0.038
  6.680000    2.566   2.693   2.405   2.526   0.965   0.979     0.570     0.851     1.479    7.514    2.172    2.042    1.778   0.037
  6.700002    2.839   2.955   2.550   2.705   0.977   0.985     0.580     0.885     1.599    7.509    2.388    2.186    1.878   0.041
  6.720002    3.963   4.054   3.315   3.459   1.013   1.006     0.647     1.103     1.868    7.513    3.197    2.844    2.232   0.062
  6.739999    5.058   5.072   4.096   4.198   1.055   1.030     0.706     1.293     2.103    7.525    4.066    3.589    2.659   0.084
  6.760000    5.504   5.387   4.454   4.496   1.091   1.053     0.710     1.435     2.263    7.548    4.552    4.062    2.930   0.100
  6.780000    5.129   4.822   4.274   4.247   1.120   1.074     0.673     1.539     2.362    7.580    4.534    4.171    2.973   0.108
  6.800002    3.763   3.298   3.450   3.393   1.126   1.087     0.601     1.538     2.362    7.607    3.822    3.756    2.701   0.105
  6.819998    3.312   2.816   3.163   3.102   1.130   1.094     0.567     1.533     2.359    7.619    3.572    3.597    2.589   0.104
  6.839999    3.445   3.020   3.244   3.203   1.116   1.083     0.597     1.589     2.395    7.616    3.612    3.595    2.618   0.100
  6.860003    3.538   3.165   3.300   3.278   1.107   1.074     0.622     1.646     2.437    7.615    3.646    3.598    2.645   0.096
  6.880002    3.640   3.315   3.361   3.353   1.097   1.066     0.650     1.707     2.482    7.613    3.680    3.596    2.671   0.093
  6.900001    3.750   3.472   3.425   3.432   1.086   1.057     0.679     1.775     2.530    7.612    3.714    3.589    2.695   0.089
  6.919998    3.871   3.646   3.497   3.520   1.075   1.048     0.711     1.848     2.581    7.611    3.752    3.584    2.721   0.085
  6.939998    3.997   3.831   3.570   3.612   1.063   1.038     0.743     1.928     2.634    7.609    3.785    3.573    2.742   0.081
  6.960000    4.135   4.033   3.650   3.712   1.050   1.028     0.777     2.015     2.690    7.608    3.821    3.563    2.762   0.077
  6.979999    4.274   4.269   3.725   3.825   1.035   1.017     0.792     2.013     2.665    7.599    3.836    3.536    2.768   0.072
  7.000000    4.331   4.399   3.785   3.884   1.023   1.009     0.825     2.127     2.691    7.600    3.832    3.531    2.770   0.070
  7.019988    4.406   4.500   3.836   3.949   1.022   1.008     0.811     2.044     2.627    7.590    3.879    3.566    2.799   0.070
  7.040009    4.454   4.543   3.872   3.983   1.024   1.009     0.811     2.048     2.636    7.588    3.924    3.602    2.827   0.070
  7.060018    4.499   4.586   3.907   4.016   1.026   1.010     0.811     2.051     2.643    7.587    3.967    3.636    2.853   0.071
  7.080013    4.544   4.628   3.940   4.048   1.028   1.010     0.811     2.053     2.654    7.585    4.009    3.668    2.878   0.072
  7.099991    4.585   4.668   3.970   4.077   1.029   1.011     0.811     2.056     2.664    7.583    4.046    3.695    2.900   0.072
  7.119981    4.624   4.706   3.997   4.104   1.030   1.011     0.812     2.059     2.672    7.582    4.079    3.719    2.918   0.073
  7.140005    4.653   4.738   4.017   4.125   1.030   1.011     0.813     2.058     2.674    7.580    4.103    3.734    2.931   0.073
  7.159988    4.675   4.782   4.035   4.149   1.029   1.010     0.804     2.004     2.632    7.572    4.113    3.742    2.937   0.073
  7.180011    4.800   4.905   4.150   4.243   1.031   1.011     0.816     2.045     2.671    7.574    4.225    3.843    3.008   0.075
  7.200002    4.995   5.078   4.310   4.378   1.037   1.014     0.834     2.102     2.735    7.578    4.395    3.988    3.107   0.078
  7.220004    5.192   5.253   4.475   4.516   1.043   1.017     0.850     2.152     2.791    7.580    4.568    4.139    3.211   0.081
  7.240000    5.407   5.447   4.652   4.666   1.049   1.020     0.866     2.194     2.836    7.582    4.754    4.299    3.321   0.085
  7.260000    5.636   5.656   4.836   4.824   1.056   1.023     0.878     2.231     2.876    7.584    4.949    4.464    3.433   0.089
  7.280009    5.876   5.879   5.028   4.990   1.062   1.026     0.888     2.259     2.908    7.586    5.150    4.634    3.547   0.093
  7.300008    6.128   6.119   5.226   5.166   1.069   1.029     0.894     2.268     2.922    7.586    5.355    4.807    3.663   0.097
  7.320001    6.299   6.293   5.360   5.286   1.072   1.031     0.895     2.267     2.924    7.582    5.492    4.921    3.735   0.099
  7.340008    6.352   6.331   5.399   5.314   1.076   1.033     0.899     2.292     2.952    7.582    5.546    4.959    3.759   0.101
  7.360006    6.436   6.394   5.457   5.360   1.081   1.036     0.907     2.320     2.979    7.582    5.626    5.017    3.793   0.103
  7.379994    6.530   6.465   5.522   5.411   1.086   1.039     0.914     2.346     3.004    7.581    5.712    5.080    3.830   0.105
  7.400002    6.631   6.545   5.591   5.467   1.092   1.042     0.921     2.370     3.027    7.581    5.805    5.145    3.868   0.107
  7.420005    6.743   6.635   5.666   5.529   1.097   1.045     0.926     2.392     3.045    7.579    5.904    5.213    3.908   0.110
  7.439995    6.860   6.733   5.745   5.596   1.103   1.048     0.932     2.409     3.059    7.578    6.007    5.284    3.949   0.113
  7.462398    6.996   6.850   5.835   5.674   1.110   1.052     0.937     2.424     3.066    7.576    6.123    5.366    3.994   0.116
  7.477121    7.086   6.930   5.896   5.726   1.114   1.054     0.940     2.430     3.066    7.574    6.198    5.421    4.023   0.117
  7.491362    7.177   7.013   5.955   5.779   1.118   1.056     0.941     2.433     3.065    7.571    6.271    5.474    4.051   0.119
  7.505150    7.266   7.095   6.012   5.831   1.121   1.058     0.941     2.433     3.062    7.569    6.340    5.525    4.077   0.121
  7.518514    7.351   7.193   6.065   5.889   1.123   1.059     0.935     2.397     3.036    7.561    6.395    5.566    4.097   0.122
  7.531479    7.383   7.237   6.087   5.913   1.123   1.059     0.929     2.378     3.016    7.557    6.414    5.578    4.102   0.122
  7.544068    7.397   7.255   6.098   5.924   1.124   1.059     0.924     2.372     3.010    7.555    6.428    5.585    4.109   0.123
  7.556303    7.441   7.293   6.128   5.952   1.127   1.061     0.923     2.369     3.009    7.554    6.468    5.620    4.131   0.124
  7.568202    7.483   7.330   6.158   5.979   1.130   1.063     0.921     2.366     3.007    7.553    6.506    5.654    4.153   0.125
  7.579783    7.524   7.365   6.186   6.005   1.132   1.064     0.920     2.362     3.006    7.552    6.542    5.687    4.174   0.126
  7.591064    7.562   7.399   6.212   6.030   1.135   1.065     0.917     2.358     3.004    7.550    6.577    5.720    4.195   0.127
  7.602060    7.599   7.432   6.238   6.054   1.138   1.067     0.915     2.353     3.002    7.549    6.610    5.752    4.216   0.128
  7.628389    7.682   7.506   6.296   6.109   1.144   1.070     0.907     2.338     2.997    7.545    6.683    5.830    4.266   0.130
  7.653213    7.750   7.569   6.343   6.155   1.150   1.073     0.895     2.318     2.999    7.540    6.745    5.895    4.309   0.132
  7.676693    7.814   7.633   6.389   6.201   1.154   1.075     0.878     2.293     3.003    7.535    6.801    5.954    4.347   0.133
  7.698970    7.878   7.699   6.433   6.246   1.158   1.077     0.858     2.263     3.007    7.529    6.854    6.006    4.382   0.134
  7.720160    7.932   7.761   6.470   6.287   1.161   1.078     0.838     2.228     3.006    7.522    6.897    6.047    4.410   0.136
  7.740363    7.970   7.818   6.496   6.322   1.161   1.078     0.811     2.172     2.987    7.513    6.918    6.065    4.427   0.136
  7.756545    8.000   7.847   6.517   6.341   1.163   1.079     0.797     2.151     2.985    7.509    6.946    6.087    4.444   0.136
  7.806546    8.154   7.976   6.622   6.435   1.175   1.085     0.771     2.106     2.978    7.500    7.097    6.205    4.521   0.141
  7.856548    8.297   8.102   6.707   6.520   1.186   1.091     0.742     2.053     2.959    7.486    7.230    6.298    4.589   0.144
  7.906545    8.383   8.158   6.740   6.558   1.198   1.097     0.705     2.002     2.946    7.476    7.319    6.351    4.637   0.147
  7.956543    8.388   8.085   6.719   6.536   1.212   1.105     0.668     1.968     2.930    7.471    7.352    6.395    4.667   0.150
  8.006552    8.375   8.039   6.681   6.507   1.223   1.111     0.613     1.922     2.908    7.468    7.382    6.407    4.706   0.151
  8.056561    8.287   7.939   6.611   6.443   1.229   1.114     0.567     1.889     2.869    7.466    7.356    6.383    4.725   0.151
  8.106531    8.206   7.747   6.573   6.382   1.243   1.123     0.487     1.683     2.366    7.426    7.406    6.459    4.744   0.156
  8.156549    8.210   7.657   6.570   6.347   1.258   1.132     0.494     1.694     2.392    7.435    7.465    6.559    4.771   0.161
  8.206556    8.170   7.538   6.583   6.307   1.268   1.139     0.504     1.708     2.406    7.444    7.533    6.681    4.809   0.165
  8.256550    8.327   7.677   6.714   6.373   1.274   1.141     0.504     1.712     2.421    7.450    7.713    6.858    4.908   0.167
  8.306554    8.686   8.009   6.929   6.553   1.291   1.151     0.529     1.760     2.502    7.454    7.953    7.069    5.031   0.173
  8.356543    8.805   8.030   7.021   6.588   1.313   1.165     0.555     1.819     2.537    7.465    8.124    7.264    5.107   0.180
  8.406540    8.815   7.968   7.046   6.558   1.337   1.179     0.576     1.868     2.570    7.475    8.244    7.441    5.179   0.185
  8.456549    9.165   8.248   7.224   6.694   1.368   1.198     0.593     1.905     2.600    7.480    8.512    7.700    5.287   0.193
  8.506546    9.285   8.299   7.274   6.710   1.397   1.215     0.604     1.933     2.639    7.485    8.684    7.862    5.325   0.200
  8.556543    9.491   8.474   7.366   6.795   1.419   1.227     0.611     1.953     2.680    7.489    8.853    7.982    5.356   0.205
  8.606543    9.534   8.456   7.356   6.756   1.449   1.245     0.625     1.981     2.738    7.501    8.985    8.060    5.354   0.212
  8.656549    9.471   8.315   7.228   6.606   1.482   1.268     0.640     2.020     2.776    7.516    8.969    8.061    5.238   0.220
  8.706547    9.051   7.833   6.917   6.279   1.507   1.288     0.653     2.053     2.786    7.536    8.762    7.891    5.058   0.224
  8.756545    8.940   7.708   6.765   6.142   1.527   1.303     0.657     2.063     2.790    7.554    8.637    7.773    4.932   0.228
  8.806546    8.702   7.470   6.509   5.901   1.550   1.323     0.677     2.102     2.814    7.578    8.411    7.601    4.778   0.231
  8.856547    8.312   7.040   6.143   5.542   1.580   1.351     0.702     2.151     2.842    7.609    8.080    7.364    4.564   0.234
  8.906550    7.927   6.571   5.790   5.200   1.609   1.380     0.712     2.175     2.827    7.624    7.733    7.141    4.318   0.239
  8.956548    7.292   5.815   5.345   4.757   1.634   1.408     0.729     2.213     2.829    7.640    7.287    6.893    4.032   0.245
  9.006552    6.404   4.840   4.857   4.226   1.644   1.424     0.763     2.300     2.867    7.656    6.842    6.658    3.818   0.245
  9.056561    4.449   2.810   3.862   3.136   1.665   1.455     0.822     2.470     2.972    7.672    5.933    6.184    3.432   0.242
  9.106565    2.424   0.496   2.830   1.843   1.739   1.532     0.831     2.565     2.901    7.759    5.091    5.753    3.093   0.247
  9.156549    2.664   0.860   2.925   2.103   1.668   1.480     0.807     2.523     2.912    7.699    4.945    5.641    3.043   0.242
  9.206556    2.003   0.074   2.532   1.639   1.694   1.510     0.824     2.584     2.958    7.693    4.502    5.496    2.816   0.243
  9.225309    1.758  -0.254   2.392   1.453   1.710   1.526     0.795     2.527     2.926    7.695    4.421    5.473    2.780   0.244
  9.230449    1.685  -0.351   2.350   1.397   1.715   1.531     0.784     2.506     2.915    7.696    4.394    5.458    2.768   0.245
  9.255273    1.441  -0.652   2.187   1.218   1.722   1.541     0.729     2.401     2.833    7.697    4.220    5.339    2.703   0.249
  9.278753    1.330  -0.783   2.103   1.154   1.715   1.541     0.686     2.295     2.726    7.694    4.075    5.306    2.658   0.252
  9.301030    1.234  -0.907   2.047   1.091   1.712   1.540     0.709     2.339     2.751    7.685    3.990    5.280    2.596   0.253
  9.322219    1.100  -1.087   1.977   0.989   1.720   1.548     0.719     2.355     2.745    7.684    3.939    5.274    2.552   0.254
  9.342422    0.967  -1.259   1.914   0.885   1.731   1.559     0.733     2.382     2.758    7.683    3.910    5.291    2.528   0.255
  9.361728    0.625  -1.690   1.739   0.632   1.754   1.582     0.749     2.420     2.779    7.685    3.769    5.245    2.432   0.257
  9.380211    0.373  -2.006   1.616   0.445   1.777   1.604     0.758     2.442     2.787    7.687    3.678    5.218    2.360   0.260
  9.397940    0.245  -2.161   1.558   0.359   1.791   1.616     0.770     2.471     2.800    7.688    3.623    5.189    2.321   0.261
  9.414973    0.149  -2.285   1.512   0.290   1.800   1.624     0.782     2.501     2.821    7.688    3.572    5.164    2.283   0.262
  9.439333    0.022  -2.451   1.451   0.199   1.811   1.635     0.804     2.555     2.867    7.689    3.497    5.131    2.232   0.264
  9.477121   -0.194  -2.730   1.350   0.038   1.828   1.651     0.817     2.584     2.845    7.686    3.392    5.101    2.147   0.265
  9.511884   -0.363  -2.930   1.277  -0.085   1.843   1.664     0.825     2.597     2.796    7.682    3.341    5.095    2.107   0.266
  9.544068   -0.480  -3.082   1.227  -0.173   1.851   1.670     0.850     2.654     2.812    7.681    3.295    5.108    2.062   0.266
  9.574031   -0.363  -2.948   1.287  -0.092   1.822   1.645     0.861     2.671     2.809    7.680    3.319    5.163    2.025   0.263
  9.602060   -0.464  -3.086   1.230  -0.178   1.830   1.653     0.871     2.692     2.839    7.679    3.284    5.176    1.993   0.264
  9.628389   -0.540  -3.200   1.184  -0.250   1.837   1.661     0.876     2.703     2.841    7.679    3.264    5.183    1.980   0.265
  9.653213   -0.609  -3.312   1.143  -0.321   1.843   1.669     0.881     2.715     2.846    7.679    3.233    5.186    1.965   0.266
  9.676694   -0.706  -3.452   1.092  -0.409   1.853   1.678     0.889     2.732     2.856    7.680    3.188    5.186    1.941   0.267
  9.698970   -0.831  -3.619   1.024  -0.516   1.864   1.690     0.898     2.752     2.874    7.681    3.133    5.169    1.914   0.268
  9.720160   -1.074  -3.922   0.903  -0.699   1.897   1.720     0.903     2.768     2.861    7.679    3.051    5.123    1.887   0.271
  9.740363   -1.160  -4.036   0.856  -0.771   1.904   1.728     0.894     2.746     2.821    7.673    3.009    5.102    1.871   0.271
  9.759667   -1.239  -4.134   0.814  -0.831   1.912   1.735     0.887     2.730     2.789    7.668    2.971    5.084    1.859   0.272
  9.778152   -1.308  -4.219   0.781  -0.883   1.919   1.742     0.883     2.720     2.767    7.664    2.936    5.074    1.848   0.273
  9.795880   -1.375  -4.296   0.749  -0.930   1.927   1.749     0.881     2.716     2.754    7.660    2.906    5.065    1.839   0.273
  9.812913   -1.436  -4.368   0.722  -0.973   1.934   1.756     0.881     2.717     2.750    7.658    2.884    5.059    1.830   0.274
  9.829304   -1.491  -4.433   0.700  -1.011   1.941   1.762     0.884     2.724     2.755    7.656    2.864    5.059    1.820   0.275
  9.845098   -1.520  -4.470   0.689  -1.033   1.944   1.765     0.887     2.731     2.766    7.655    2.849    5.068    1.808   0.275
  9.860338   -1.567  -4.530   0.673  -1.067   1.951   1.771     0.890     2.739     2.770    7.654    2.831    5.081    1.793   0.276
  9.875061   -1.641  -4.619   0.643  -1.120   1.962   1.782     0.892     2.742     2.769    7.653    2.803    5.092    1.774   0.277
  9.889301   -1.712  -4.705   0.614  -1.171   1.974   1.792     0.894     2.746     2.769    7.653    2.773    5.104    1.755   0.278
  9.903090   -1.778  -4.783   0.587  -1.218   1.984   1.802     0.895     2.750     2.768    7.653    2.746    5.117    1.737   0.279
  9.916454   -1.838  -4.854   0.563  -1.260   1.994   1.812     0.897     2.753     2.767    7.652    2.721    5.134    1.721   0.280
  9.929419   -1.894  -4.918   0.540  -1.300   2.004   1.820     0.898     2.756     2.766    7.652    2.698    5.150    1.705   0.281
  9.942008   -1.944  -4.976   0.520  -1.335   2.013   1.829     0.900     2.759     2.765    7.652    2.679    5.163    1.691   0.282
  9.954243   -1.990  -5.030   0.501  -1.368   2.021   1.836     0.901     2.761     2.763    7.651    2.660    5.178    1.678   0.283
  9.966142   -2.037  -5.082   0.481  -1.401   2.028   1.843     0.902     2.763     2.761    7.651    2.638    5.195    1.668   0.284
  9.977724   -2.089  -5.138   0.460  -1.435   2.036   1.850     0.904     2.765     2.759    7.651    2.614    5.211    1.657   0.284
  9.989004   -2.142  -5.193   0.438  -1.470   2.044   1.857     0.905     2.767     2.757    7.650    2.591    5.222    1.647   0.285
 10.000000   -2.197  -5.248   0.415  -1.505   2.051   1.864     0.907     2.768     2.755    7.650    2.570    5.231    1.637   0.285
 10.010724   -2.252  -5.303   0.392  -1.540   2.059   1.871     0.905     2.762     2.744    7.649    2.552    5.237    1.629   0.285
 10.021190   -2.301  -5.354   0.371  -1.572   2.066   1.877     0.900     2.750     2.729    7.648    2.536    5.246    1.620   0.286
 10.031408   -2.348  -5.404   0.351  -1.605   2.073   1.884     0.895     2.738     2.715    7.647    2.520    5.256    1.611   0.286
 10.041392   -2.395  -5.454   0.331  -1.636   2.080   1.891     0.891     2.727     2.701    7.647    2.504    5.266    1.603   0.287
 10.051152   -2.439  -5.501   0.312  -1.667   2.087   1.897     0.887     2.716     2.688    7.646    2.491    5.275    1.594   0.287
 10.060698   -2.482  -5.546   0.293  -1.696   2.094   1.904     0.883     2.706     2.676    7.645    2.480    5.282    1.586   0.287
 10.070038   -2.524  -5.589   0.275  -1.723   2.100   1.910     0.880     2.697     2.664    7.645    2.470    5.288    1.579   0.287
 10.079182   -2.562  -5.628   0.259  -1.749   2.107   1.916     0.876     2.688     2.653    7.645    2.462    5.292    1.572   0.288
 10.088136   -2.598  -5.665   0.242  -1.773   2.113   1.922     0.874     2.680     2.643    7.645    2.456    5.294    1.566   0.288
 10.096910   -2.633  -5.700   0.227  -1.796   2.119   1.927     0.871     2.672     2.633    7.644    2.452    5.296    1.561   0.288
 10.105510   -2.668  -5.735   0.211  -1.818   2.125   1.933     0.869     2.666     2.624    7.645    2.447    5.299    1.557   0.288
 10.113943   -2.699  -5.767   0.198  -1.839   2.130   1.938     0.866     2.659     2.616    7.645    2.443    5.302    1.553   0.288
 10.122216   -2.726  -5.794   0.185  -1.858   2.135   1.942     0.864     2.654     2.609    7.645    2.442    5.303    1.549   0.289
 10.130334   -2.751  -5.819   0.175  -1.874   2.139   1.946     0.862     2.649     2.602    7.645    2.441    5.305    1.546   0.289
 10.138303   -2.774  -5.842   0.166  -1.889   2.143   1.950     0.861     2.644     2.597    7.646    2.440    5.306    1.543   0.289
 10.146128   -2.798  -5.864   0.156  -1.904   2.147   1.953     0.860     2.641     2.592    7.646    2.439    5.306    1.541   0.289
 10.153815   -2.820  -5.885   0.147  -1.918   2.151   1.956     0.859     2.638     2.588    7.647    2.438    5.308    1.538   0.289
 10.161368   -2.842  -5.906   0.139  -1.933   2.154   1.960     0.859     2.636     2.585    7.647    2.437    5.310    1.534   0.289
 10.168792   -2.864  -5.927   0.130  -1.948   2.158   1.963     0.858     2.635     2.583    7.648    2.436    5.312    1.530   0.289
 10.176091   -2.888  -5.949   0.121  -1.963   2.162   1.966     0.859     2.635     2.583    7.649    2.435    5.312    1.527   0.289
 10.183270   -2.912  -5.971   0.112  -1.977   2.166   1.970     0.860     2.637     2.582    7.650    2.432    5.312    1.523   0.289
 10.190331   -2.922  -5.983   0.109  -1.985   2.168   1.971     0.863     2.643     2.584    7.650    2.428    5.319    1.518   0.289
 10.197281   -2.931  -5.994   0.106  -1.993   2.169   1.973     0.865     2.648     2.586    7.650    2.425    5.326    1.513   0.289
 10.204120   -2.940  -6.005   0.104  -2.000   2.171   1.974     0.867     2.654     2.588    7.650    2.422    5.333    1.508   0.289
 10.210854   -2.949  -6.016   0.101  -2.007   2.172   1.976     0.869     2.659     2.590    7.651    2.419    5.339    1.503   0.289
 10.217484   -2.957  -6.025   0.100  -2.013   2.174   1.977     0.872     2.664     2.592    7.651    2.416    5.345    1.499   0.289
 10.224015   -2.964  -6.034   0.098  -2.018   2.175   1.978     0.874     2.669     2.594    7.651    2.413    5.351    1.494   0.290
 10.230449   -2.971  -6.042   0.096  -2.023   2.176   1.979     0.876     2.674     2.596    7.651    2.410    5.358    1.490   0.290
 10.236789   -2.977  -6.049   0.095  -2.028   2.177   1.980     0.878     2.679     2.598    7.651    2.407    5.364    1.486   0.290
 10.243038   -2.982  -6.056   0.095  -2.032   2.178   1.981     0.880     2.684     2.600    7.651    2.404    5.371    1.482   0.290
 10.249198   -2.986  -6.061   0.094  -2.035   2.179   1.981     0.882     2.689     2.602    7.652    2.401    5.377    1.479   0.290
 10.255273   -2.990  -6.066   0.094  -2.038   2.180   1.982     0.884     2.693     2.604    7.652    2.399    5.383    1.475   0.290
 10.261263   -2.994  -6.071   0.094  -2.040   2.180   1.982     0.886     2.698     2.606    7.652    2.397    5.388    1.472   0.290
 10.267172   -2.996  -6.074   0.094  -2.042   2.181   1.983     0.888     2.702     2.608    7.652    2.396    5.394    1.469   0.290
 10.273002   -2.999  -6.077   0.095  -2.044   2.181   1.983     0.890     2.707     2.609    7.653    2.395    5.399    1.466   0.290
 10.278753   -3.000  -6.079   0.095  -2.045   2.181   1.983     0.891     2.711     2.611    7.653    2.394    5.403    1.464   0.290
 10.284431   -3.001  -6.080   0.097  -2.045   2.182   1.983     0.893     2.716     2.613    7.653    2.394    5.408    1.462   0.290
 10.290034   -3.001  -6.080   0.098  -2.045   2.182   1.983     0.895     2.720     2.615    7.653    2.395    5.412    1.460   0.290
 10.295568   -3.001  -6.080   0.099  -2.045   2.182   1.983     0.896     2.724     2.617    7.653    2.395    5.415    1.458   0.290
 10.301030   -3.000  -6.079   0.101  -2.044   2.182   1.983     0.898     2.728     2.618    7.654    2.396    5.419    1.456   0.290
