#                                                     Thu Jun  9 07:26:44 2016
#          I------------------------------------------------------------------------------------------------------------------------I
#          I                                                                                                                        I
#          I      BC_GALAXEV  ---  MODEL PARAMETERS:   Generic file name for this model = bc2003_hr_xmiless_m82_kroup_ssp           I
#          I                                                                                                                        I
#          I      TRACKS: Padova (1994) + S. Charlot (1997). X=0.4250, Y=0.475, Z=0.1000                                            I
#          I                                                                                                                        I
#          I      S.F.R.: SSP = Zero Length Burst at t = 0                                                                          I
#          I                                                                                                                        I
#          I                                                                                                                        I
#          I      I.M.F.: Power law ( 2 segments):                                                                                  I
#          I                                                                      mass in      number                               I
#          I                                              x   from m     to m     segment    of stars      c                        I
#          I                                           0.30     0.10     0.50      0.2668      1.1434  4.4891E-01                   I
#          I                                           1.30     0.50   100.00      0.7332      0.4247  2.2446E-01                   I
#          I                                                                                                                        I
#          I                                                           totals      1.0000      1.5681  0.6377 Mo/star               I
#          I                                                                                                                        I
#          I                                                                                                                        I
#          I                                                                                                                        I
#          I                                                                                                                        I
#          I      LISTED: Rest frame properties                                                                                     I
#          I                                                                                                                        I
#          I                                                                                                                        I
#          I                              (C) 1995-2015 G. Bruzual A. & S. Charlot - All Rights Reserved                            I
#          I------------------------------------------------------------------------------------------------------------------------I
#
#    (1)       (2)     (3)     (4)     (5)     (6)     (7)      (8)       (9)       (10)     (11)     (12)     (13)     (14)    (15)
#
# Index_No.   WO-1:   WO-2:   WO-3:   WO-4:   GC-1:   4000A   DTT-Ca1   DTT-Ca2   DTT-Ca3  DTT-MgI    DM-04    DM-04    DM-04     BH:
# log-age   HdeltaA HgammaA HdeltaF HgammaF D(4000)   B4_VN  CaII8498  CaII8542  CaII8662  MgI8807  H8_3889  H9_3835 H10_3798   BH-HK
#   (yr)       (A)     (A)     (A)     (A)      .       .        (A)       (A)       (A)      (A)      (A)      (A)      (A)      (A)
  5.000000    5.020   7.198   4.893   5.539   1.033   1.011     0.227     0.596     1.838    7.342    5.048    4.645    3.579   0.087
  5.149989    5.020   7.198   4.893   5.539   1.033   1.011     0.227     0.596     1.838    7.342    5.048    4.645    3.579   0.087
  5.200002    5.020   7.198   4.893   5.539   1.033   1.011     0.227     0.596     1.838    7.342    5.048    4.645    3.579   0.087
  5.250005    5.020   7.198   4.893   5.539   1.033   1.011     0.227     0.596     1.838    7.342    5.048    4.645    3.579   0.087
  5.300008    5.020   7.198   4.893   5.539   1.033   1.011     0.227     0.596     1.838    7.342    5.048    4.645    3.579   0.087
  5.349996    5.020   7.198   4.893   5.539   1.033   1.011     0.227     0.596     1.838    7.342    5.048    4.645    3.579   0.087
  5.400002    5.020   7.198   4.893   5.539   1.033   1.011     0.227     0.596     1.838    7.342    5.048    4.645    3.579   0.087
  5.450003    5.020   7.198   4.893   5.539   1.033   1.011     0.227     0.596     1.838    7.342    5.048    4.645    3.579   0.087
  5.500003    5.020   7.198   4.893   5.539   1.033   1.011     0.227     0.596     1.838    7.342    5.048    4.645    3.579   0.087
  5.550008    5.020   7.198   4.893   5.539   1.033   1.011     0.227     0.596     1.838    7.342    5.048    4.645    3.579   0.087
  5.600003    5.020   7.198   4.893   5.539   1.033   1.011     0.227     0.596     1.838    7.342    5.048    4.645    3.579   0.087
  5.650006    5.020   7.198   4.893   5.539   1.033   1.011     0.227     0.596     1.838    7.342    5.048    4.645    3.579   0.087
  5.700002    5.020   7.198   4.893   5.539   1.033   1.011     0.227     0.596     1.838    7.342    5.048    4.645    3.579   0.087
  5.749999    5.020   7.198   4.893   5.539   1.033   1.011     0.227     0.596     1.838    7.342    5.048    4.645    3.579   0.087
  5.800002    5.020   7.198   4.893   5.539   1.033   1.011     0.227     0.596     1.838    7.342    5.048    4.645    3.579   0.087
  5.850003    5.020   7.198   4.893   5.539   1.033   1.011     0.227     0.596     1.838    7.342    5.048    4.645    3.579   0.087
  5.900001    5.004   7.184   4.881   5.527   1.032   1.011     0.229     0.594     1.831    7.343    5.034    4.634    3.572   0.086
  5.950005    4.998   7.179   4.877   5.523   1.032   1.011     0.228     0.593     1.830    7.343    5.029    4.631    3.570   0.086
  6.000000    5.001   7.178   4.878   5.522   1.032   1.011     0.226     0.593     1.834    7.343    5.031    4.632    3.572   0.086
  6.019988    5.004   7.179   4.881   5.522   1.032   1.011     0.224     0.593     1.837    7.343    5.033    4.634    3.574   0.086
  6.040009    5.008   7.181   4.884   5.523   1.032   1.011     0.223     0.594     1.841    7.343    5.037    4.637    3.577   0.086
  6.060018    5.012   7.183   4.886   5.524   1.032   1.011     0.221     0.594     1.844    7.342    5.039    4.639    3.580   0.086
  6.080013    5.014   7.184   4.888   5.525   1.032   1.011     0.221     0.594     1.846    7.342    5.042    4.641    3.581   0.087
  6.099991    4.998   7.177   4.878   5.521   1.032   1.011     0.227     0.593     1.832    7.343    5.030    4.631    3.571   0.086
  6.120014    4.993   7.174   4.874   5.519   1.031   1.011     0.228     0.592     1.830    7.343    5.025    4.628    3.568   0.086
  6.140005    4.989   7.170   4.871   5.517   1.031   1.011     0.228     0.592     1.828    7.344    5.022    4.625    3.566   0.086
  6.159988    4.985   7.168   4.868   5.515   1.031   1.011     0.229     0.591     1.827    7.344    5.019    4.623    3.564   0.086
  6.180011    4.983   7.166   4.866   5.513   1.031   1.011     0.229     0.591     1.826    7.344    5.017    4.621    3.563   0.086
  6.200002    4.981   7.164   4.865   5.512   1.031   1.010     0.229     0.591     1.826    7.344    5.015    4.620    3.562   0.086
  6.220004    4.980   7.163   4.865   5.511   1.031   1.010     0.228     0.590     1.827    7.344    5.015    4.619    3.562   0.086
  6.240000    4.991   7.170   4.874   5.517   1.031   1.011     0.225     0.591     1.835    7.344    5.025    4.627    3.569   0.086
  6.260000    4.995   7.172   4.876   5.519   1.031   1.011     0.224     0.591     1.838    7.344    5.028    4.629    3.571   0.086
  6.280009    4.984   7.165   4.868   5.512   1.031   1.010     0.226     0.590     1.831    7.344    5.019    4.622    3.565   0.086
  6.300008    4.975   7.158   4.861   5.507   1.031   1.010     0.227     0.589     1.826    7.344    5.011    4.616    3.560   0.086
  6.320001    4.968   7.153   4.856   5.503   1.030   1.010     0.228     0.588     1.823    7.345    5.005    4.611    3.556   0.086
  6.340008    4.964   7.149   4.853   5.500   1.030   1.010     0.227     0.587     1.823    7.345    5.001    4.609    3.555   0.086
  6.360006    4.962   7.147   4.851   5.498   1.030   1.010     0.227     0.586     1.822    7.345    5.000    4.607    3.554   0.086
  6.379994    4.961   7.146   4.851   5.498   1.030   1.010     0.226     0.586     1.824    7.345    4.999    4.607    3.554   0.086
  6.400002    4.963   7.147   4.853   5.498   1.030   1.010     0.225     0.586     1.826    7.345    5.001    4.609    3.555   0.086
  6.420005    4.956   7.141   4.848   5.494   1.030   1.010     0.225     0.585     1.825    7.346    4.996    4.604    3.552   0.086
  6.439995    4.950   7.136   4.844   5.490   1.029   1.010     0.225     0.584     1.824    7.346    4.991    4.600    3.549   0.085
  6.459995    4.943   7.131   4.838   5.486   1.029   1.010     0.226     0.583     1.820    7.346    4.985    4.596    3.546   0.085
  6.480007    4.939   7.127   4.835   5.483   1.029   1.009     0.226     0.582     1.819    7.346    4.981    4.593    3.544   0.085
  6.500003    4.936   7.124   4.833   5.480   1.029   1.009     0.224     0.581     1.818    7.347    4.979    4.591    3.543   0.085
  6.519999    4.935   7.122   4.833   5.479   1.029   1.009     0.224     0.580     1.819    7.347    4.979    4.591    3.543   0.085
  6.540004    4.930   7.118   4.830   5.476   1.028   1.009     0.224     0.579     1.817    7.347    4.975    4.588    3.541   0.085
  6.560002    4.923   7.112   4.826   5.473   1.028   1.009     0.224     0.578     1.814    7.348    4.971    4.584    3.538   0.085
  6.580001    4.925   7.113   4.828   5.473   1.028   1.009     0.223     0.577     1.814    7.348    4.973    4.585    3.539   0.085
  6.600003    4.928   7.115   4.831   5.475   1.028   1.009     0.223     0.577     1.815    7.348    4.977    4.588    3.541   0.085
  6.620001    4.917   7.105   4.824   5.468   1.028   1.009     0.223     0.574     1.810    7.349    4.969    4.581    3.537   0.085
  6.640004    4.913   7.101   4.822   5.466   1.027   1.008     0.223     0.573     1.808    7.350    4.967    4.580    3.536   0.084
  6.660002    4.908   7.096   4.820   5.462   1.027   1.008     0.222     0.571     1.806    7.350    4.965    4.577    3.535   0.084
  6.680000    4.903   7.091   4.817   5.459   1.027   1.008     0.222     0.569     1.804    7.351    4.962    4.574    3.533   0.084
  6.700002    4.896   7.085   4.813   5.455   1.027   1.008     0.222     0.567     1.800    7.351    4.957    4.570    3.530   0.084
  6.720002    4.891   7.080   4.810   5.451   1.026   1.008     0.221     0.565     1.798    7.352    4.954    4.567    3.529   0.084
  6.739999    4.855   7.048   4.785   5.428   1.025   1.007     0.220     0.564     1.798    7.353    4.924    4.545    3.516   0.083
  6.760000    4.825   7.023   4.764   5.408   1.024   1.007     0.220     0.561     1.794    7.354    4.901    4.528    3.507   0.083
  6.780000    4.799   7.002   4.747   5.392   1.024   1.006     0.219     0.559     1.790    7.354    4.882    4.514    3.500   0.082
  6.800002    4.770   6.978   4.726   5.373   1.023   1.006     0.219     0.556     1.783    7.355    4.858    4.496    3.491   0.082
  6.819998    4.741   6.954   4.706   5.354   1.022   1.006     0.219     0.553     1.775    7.356    4.835    4.479    3.481   0.081
  6.839999    4.711   6.929   4.685   5.334   1.021   1.005     0.219     0.549     1.769    7.358    4.812    4.462    3.472   0.081
  6.860003    4.680   6.903   4.664   5.314   1.020   1.005     0.216     0.547     1.773    7.359    4.788    4.444    3.462   0.080
  6.880002    4.645   6.873   4.639   5.291   1.019   1.004     0.213     0.544     1.775    7.360    4.761    4.423    3.450   0.080
  6.900001    4.612   6.844   4.616   5.269   1.018   1.004     0.210     0.541     1.775    7.362    4.735    4.404    3.439   0.079
  6.919998    4.584   6.810   4.596   5.245   1.017   1.003     0.207     0.537     1.774    7.364    4.712    4.387    3.432   0.078
  6.939998    4.532   6.758   4.558   5.207   1.016   1.002     0.204     0.533     1.773    7.366    4.667    4.354    3.414   0.078
  6.960000    4.471   6.699   4.513   5.163   1.014   1.001     0.200     0.528     1.771    7.368    4.615    4.315    3.391   0.077
  6.979999    4.409   6.640   4.470   5.119   1.012   1.000     0.196     0.523     1.768    7.371    4.564    4.277    3.372   0.076
  7.000000    4.349   6.583   4.428   5.076   1.010   1.000     0.190     0.518     1.774    7.373    4.517    4.241    3.354   0.075
  7.019988    4.285   6.522   4.383   5.031   1.009   0.999     0.185     0.512     1.777    7.376    4.466    4.203    3.334   0.073
  7.040009    4.323   6.546   4.415   5.057   1.012   1.001     0.283     0.772     1.705    6.886    4.510    4.235    3.360   0.075
  7.060018    4.392   6.605   4.471   5.106   1.016   1.003     0.304     0.865     1.409    6.586    4.580    4.287    3.400   0.076
  7.080013    4.472   6.674   4.535   5.163   1.019   1.004     0.319     0.913     1.424    6.540    4.656    4.343    3.441   0.078
  7.099991    4.563   6.754   4.606   5.229   1.023   1.006     0.320     0.924     1.456    6.542    4.739    4.405    3.486   0.080
  7.119981    4.660   6.839   4.681   5.299   1.027   1.008     0.321     0.936     1.491    6.546    4.827    4.470    3.533   0.081
  7.140005    4.761   6.927   4.759   5.371   1.031   1.010     0.323     0.948     1.529    6.552    4.917    4.538    3.582   0.083
  7.159988    4.866   7.020   4.839   5.445   1.035   1.012     0.327     0.960     1.565    6.561    5.009    4.607    3.631   0.085
  7.180011    4.976   7.119   4.921   5.522   1.039   1.014     0.332     0.972     1.602    6.573    5.101    4.679    3.680   0.087
  7.200002    5.088   7.218   5.002   5.599   1.044   1.016     0.338     0.985     1.644    6.589    5.193    4.749    3.728   0.089
  7.220004    5.189   7.311   5.074   5.669   1.047   1.018     0.344     0.992     1.701    6.616    5.273    4.812    3.770   0.090
  7.240000    5.274   7.388   5.135   5.728   1.051   1.020     0.345     0.988     1.749    6.658    5.339    4.864    3.805   0.092
  7.260000    5.361   7.466   5.197   5.788   1.054   1.021     0.340     0.970     1.738    6.687    5.408    4.918    3.842   0.093
  7.280009    5.452   7.548   5.261   5.851   1.058   1.023     0.341     0.966     1.699    6.682    5.481    4.976    3.882   0.095
  7.300008    5.554   7.639   5.334   5.921   1.062   1.025     0.342     0.961     1.655    6.678    5.562    5.041    3.926   0.097
  7.320001    5.665   7.740   5.413   5.998   1.066   1.027     0.343     0.954     1.606    6.675    5.650    5.112    3.975   0.098
  7.340008    5.775   7.840   5.493   6.074   1.070   1.029     0.345     0.944     1.548    6.672    5.736    5.182    4.022   0.100
  7.360006    5.867   7.926   5.556   6.135   1.074   1.031     0.342     0.926     1.496    6.675    5.807    5.240    4.061   0.102
  7.379994    5.943   7.996   5.609   6.186   1.077   1.032     0.340     0.908     1.472    6.694    5.869    5.289    4.094   0.103
  7.400002    6.024   8.069   5.664   6.239   1.080   1.034     0.340     0.893     1.457    6.719    5.934    5.341    4.130   0.104
  7.420005    6.107   8.145   5.721   6.294   1.084   1.036     0.341     0.883     1.419    6.726    6.004    5.396    4.169   0.106
  7.439995    6.185   8.216   5.774   6.345   1.088   1.038     0.342     0.874     1.378    6.731    6.073    5.450    4.207   0.107
  7.462398    6.273   8.297   5.834   6.402   1.092   1.040     0.344     0.863     1.327    6.738    6.151    5.511    4.249   0.109
  7.477121    6.332   8.350   5.873   6.441   1.095   1.041     0.344     0.856     1.294    6.744    6.204    5.551    4.278   0.110
  7.491362    6.389   8.401   5.910   6.477   1.098   1.043     0.343     0.849     1.263    6.749    6.256    5.591    4.306   0.111
  7.505150    6.443   8.451   5.945   6.512   1.101   1.045     0.342     0.841     1.234    6.755    6.306    5.631    4.333   0.112
  7.518514    6.495   8.497   5.978   6.545   1.105   1.046     0.340     0.834     1.205    6.762    6.355    5.668    4.359   0.114
  7.531479    6.544   8.542   6.009   6.576   1.108   1.048     0.337     0.826     1.177    6.769    6.402    5.704    4.385   0.115
  7.544068    6.588   8.582   6.035   6.603   1.111   1.050     0.334     0.819     1.150    6.776    6.445    5.735    4.406   0.116
  7.556303    6.623   8.613   6.054   6.623   1.114   1.051     0.330     0.811     1.127    6.785    6.482    5.762    4.425   0.117
  7.568202    6.657   8.643   6.071   6.643   1.117   1.053     0.327     0.805     1.109    6.794    6.518    5.787    4.442   0.118
  7.579783    6.688   8.671   6.088   6.662   1.120   1.055     0.325     0.801     1.095    6.800    6.554    5.812    4.460   0.119
  7.591064    6.714   8.691   6.105   6.680   1.123   1.055     0.323     0.797     1.083    6.807    6.588    5.836    4.481   0.120
  7.602060    6.739   8.710   6.122   6.697   1.125   1.056     0.322     0.795     1.072    6.814    6.621    5.861    4.502   0.121
  7.628389    6.803   8.762   6.163   6.741   1.131   1.059     0.318     0.793     1.033    6.821    6.700    5.918    4.550   0.123
  7.653213    6.871   8.820   6.206   6.789   1.137   1.061     0.312     0.785     1.003    6.841    6.777    5.976    4.597   0.125
  7.676693    6.939   8.878   6.248   6.835   1.143   1.064     0.305     0.777     0.978    6.862    6.849    6.031    4.641   0.127
  7.698970    7.002   8.931   6.285   6.877   1.149   1.067     0.297     0.769     0.957    6.885    6.912    6.080    4.679   0.129
  7.720160    7.065   8.986   6.323   6.919   1.154   1.070     0.290     0.762     0.936    6.909    6.973    6.128    4.716   0.131
  7.740363    7.133   9.045   6.363   6.963   1.160   1.073     0.283     0.755     0.914    6.936    7.030    6.174    4.750   0.133
  7.756545    7.193   9.098   6.399   7.001   1.164   1.075     0.277     0.749     0.896    6.959    7.080    6.215    4.779   0.134
  7.806546    7.371   9.255   6.503   7.112   1.177   1.083     0.256     0.726     0.846    7.047    7.212    6.328    4.854   0.140
  7.856548    7.512   9.375   6.596   7.210   1.187   1.088     0.248     0.723     0.857    7.112    7.308    6.421    4.921   0.144
  7.906545    7.687   9.516   6.710   7.312   1.199   1.095     0.250     0.750     0.881    7.125    7.442    6.548    5.002   0.148
  7.956543    7.895   9.684   6.846   7.431   1.212   1.103     0.252     0.780     0.902    7.140    7.593    6.694    5.089   0.153
  8.006552    8.127   9.867   7.002   7.565   1.227   1.112     0.257     0.813     0.924    7.159    7.763    6.861    5.188   0.158
  8.056561    8.383  10.066   7.169   7.706   1.245   1.123     0.267     0.854     0.953    7.184    7.958    7.052    5.293   0.165
  8.106531    8.641  10.260   7.336   7.843   1.265   1.135     0.283     0.907     0.995    7.217    8.172    7.256    5.400   0.172
  8.156549    8.900  10.461   7.487   7.963   1.288   1.149     0.302     0.965     1.052    7.259    8.404    7.460    5.491   0.180
  8.206556    9.121  10.637   7.603   8.057   1.311   1.163     0.330     1.042     1.151    7.288    8.615    7.641    5.560   0.187
  8.256550    9.288  10.756   7.674   8.109   1.337   1.178     0.364     1.151     1.265    7.309    8.814    7.808    5.615   0.194
  8.306554    9.448  10.862   7.727   8.138   1.366   1.197     0.394     1.263     1.389    7.331    9.008    7.970    5.650   0.202
  8.356543    9.508  10.865   7.702   8.099   1.398   1.218     0.429     1.396     1.544    7.359    9.125    8.072    5.637   0.211
  8.406540    9.412  10.701   7.571   7.964   1.425   1.238     0.472     1.554     1.736    7.391    9.103    8.069    5.551   0.217
  8.456549    9.225  10.443   7.377   7.773   1.453   1.259     0.491     1.631     1.820    7.419    9.026    8.025    5.430   0.224
  8.506546    8.950  10.085   7.123   7.527   1.484   1.284     0.529     1.735     1.917    7.428    8.892    7.947    5.270   0.231
  8.556543    8.565   9.600   6.798   7.217   1.518   1.310     0.568     1.840     2.013    7.439    8.688    7.826    5.070   0.238
  8.606543    8.047   8.966   6.400   6.837   1.553   1.338     0.615     1.959     2.120    7.450    8.389    7.650    4.833   0.244
  8.656549    7.452   8.211   5.978   6.400   1.584   1.366     0.671     2.098     2.246    7.464    8.027    7.462    4.583   0.250
  8.706547    6.793   7.370   5.569   5.931   1.604   1.385     0.737     2.254     2.397    7.477    7.632    7.282    4.363   0.253
  8.756545    5.991   6.355   5.094   5.368   1.625   1.407     0.804     2.412     2.540    7.488    7.151    7.080    4.124   0.256
  8.806546    4.990   5.138   4.514   4.685   1.650   1.434     0.833     2.478     2.561    7.495    6.563    6.831    3.842   0.259
  8.856547    3.820   3.718   3.843   3.886   1.678   1.466     0.860     2.553     2.590    7.502    5.862    6.524    3.505   0.262
  8.906550    2.520   2.136   3.125   2.984   1.717   1.511     0.881     2.626     2.620    7.507    5.085    6.217    3.145   0.267
  8.956548    1.154   0.464   2.399   2.018   1.776   1.574     0.894     2.694     2.654    7.511    4.286    5.922    2.746   0.272
  9.006552    0.136  -0.770   1.899   1.273   1.837   1.636     0.902     2.750     2.684    7.510    3.765    5.693    2.454   0.275
  9.056561   -0.609  -1.627   1.572   0.751   1.906   1.703     0.900     2.768     2.678    7.498    3.511    5.519    2.297   0.278
  9.106565   -1.490  -2.542   1.200   0.181   1.990   1.786     0.882     2.731     2.601    7.485    3.200    5.325    2.144   0.283
  9.156549   -2.379  -3.467   0.830  -0.375   2.083   1.873     0.869     2.692     2.534    7.475    2.861    5.188    2.018   0.287
  9.206556   -2.665  -3.723   0.696  -0.546   2.129   1.911     0.844     2.612     2.419    7.462    2.816    5.209    2.037   0.288
  9.225309   -2.959  -4.101   0.559  -0.771   2.169   1.945     0.833     2.603     2.384    7.464    2.771    5.142    1.990   0.289
  9.230449   -3.145  -4.308   0.476  -0.895   2.193   1.967     0.808     2.533     2.281    7.463    2.726    5.086    1.964   0.290
  9.255273   -3.541  -4.671   0.295  -1.154   2.240   2.009     0.712     2.232     1.903    7.371    2.624    4.929    1.940   0.290
  9.278753   -3.654  -4.710   0.238  -1.220   2.241   2.013     0.669     2.080     1.722    7.334    2.590    4.876    1.903   0.289
  9.301030   -3.747  -4.704   0.207  -1.252   2.233   2.011     0.681     2.078     1.750    7.325    2.569    4.846    1.865   0.287
  9.322219   -3.980  -4.928   0.120  -1.386   2.257   2.032     0.719     2.193     1.884    7.394    2.527    4.834    1.823   0.287
  9.342422   -4.212  -5.142   0.023  -1.523   2.285   2.056     0.712     2.179     1.860    7.394    2.466    4.789    1.817   0.288
  9.361728   -4.448  -5.359  -0.075  -1.656   2.314   2.081     0.708     2.168     1.844    7.395    2.439    4.746    1.815   0.289
  9.380211   -4.647  -5.528  -0.158  -1.761   2.339   2.101     0.702     2.155     1.825    7.395    2.396    4.729    1.824   0.290
  9.397940   -4.840  -5.682  -0.233  -1.857   2.366   2.123     0.697     2.143     1.808    7.396    2.370    4.719    1.850   0.291
  9.414973   -5.031  -5.830  -0.306  -1.946   2.392   2.144     0.694     2.134     1.797    7.398    2.358    4.702    1.871   0.293
  9.439333   -5.273  -6.002  -0.394  -2.051   2.421   2.167     0.689     2.122     1.781    7.404    2.338    4.669    1.902   0.293
  9.477121   -5.537  -6.156  -0.479  -2.152   2.446   2.185     0.678     2.092     1.743    7.412    2.324    4.578    1.924   0.292
  9.511884   -5.670  -6.211  -0.511  -2.185   2.458   2.192     0.667     2.065     1.708    7.421    2.315    4.503    1.939   0.290
  9.544068   -5.818  -6.303  -0.561  -2.239   2.474   2.203     0.659     2.044     1.680    7.434    2.282    4.427    1.947   0.288
  9.574031   -5.985  -6.436  -0.621  -2.319   2.505   2.227     0.654     2.038     1.663    7.441    2.252    4.378    1.961   0.288
  9.602060   -6.162  -6.590  -0.683  -2.405   2.538   2.252     0.647     2.028     1.640    7.444    2.249    4.335    1.981   0.289
  9.628389   -6.304  -6.729  -0.732  -2.470   2.564   2.272     0.642     2.021     1.622    7.447    2.286    4.312    2.004   0.289
  9.653213   -6.425  -6.864  -0.771  -2.525   2.586   2.289     0.638     2.018     1.608    7.451    2.344    4.301    2.026   0.290
  9.676694   -6.546  -7.006  -0.811  -2.578   2.609   2.306     0.636     2.018     1.598    7.456    2.399    4.300    2.055   0.291
  9.698970   -6.118  -6.683  -0.616  -2.340   2.541   2.243     0.649     2.057     1.643    7.464    2.772    4.529    2.239   0.287
  9.720160   -3.720  -4.567   0.472  -1.033   2.183   1.926     0.702     2.174     1.809    7.476    4.009    5.229    2.903   0.266
  9.740363   -2.295  -3.209   1.144  -0.191   2.002   1.771     0.747     2.276     1.955    7.487    4.614    5.502    3.231   0.252
  9.759667   -1.350  -2.259   1.604   0.395   1.891   1.676     0.785     2.364     2.081    7.496    4.969    5.636    3.427   0.243
  9.778152   -0.678  -1.557   1.938   0.821   1.815   1.612     0.816     2.439     2.187    7.503    5.190    5.707    3.553   0.235
  9.795880   -0.192  -1.031   2.187   1.132   1.757   1.564     0.840     2.499     2.275    7.509    5.335    5.740    3.637   0.228
  9.812913    0.167  -0.631   2.381   1.362   1.712   1.527     0.858     2.546     2.342    7.514    5.433    5.746    3.699   0.222
  9.829304    0.436  -0.322   2.535   1.530   1.673   1.495     0.867     2.578     2.388    7.516    5.495    5.734    3.746   0.216
  9.845098    0.635  -0.084   2.660   1.646   1.639   1.468     0.868     2.594     2.411    7.517    5.532    5.704    3.782   0.209
  9.860338    0.704   0.005   2.721   1.672   1.617   1.450     0.870     2.616     2.440    7.521    5.535    5.662    3.797   0.204
  9.875061    0.831   0.145   2.787   1.754   1.602   1.438     0.875     2.633     2.463    7.524    5.564    5.656    3.815   0.202
  9.889301    0.944   0.270   2.847   1.826   1.588   1.427     0.880     2.650     2.485    7.527    5.591    5.652    3.832   0.200
  9.903090    1.046   0.383   2.901   1.891   1.577   1.417     0.884     2.665     2.505    7.529    5.615    5.649    3.847   0.198
  9.916454    1.140   0.488   2.952   1.951   1.567   1.409     0.888     2.679     2.522    7.531    5.636    5.647    3.862   0.196
  9.929419    1.222   0.579   2.996   2.002   1.558   1.402     0.891     2.692     2.539    7.533    5.656    5.646    3.875   0.195
  9.942008    1.292   0.654   3.035   2.044   1.550   1.395     0.894     2.706     2.556    7.535    5.675    5.645    3.887   0.194
  9.954243    1.350   0.715   3.068   2.078   1.544   1.390     0.898     2.718     2.572    7.537    5.694    5.643    3.897   0.193
  9.966142    1.397   0.761   3.097   2.103   1.538   1.386     0.901     2.731     2.588    7.538    5.713    5.642    3.906   0.192
  9.977724    1.434   0.794   3.120   2.121   1.534   1.382     0.903     2.743     2.603    7.539    5.731    5.642    3.916   0.191
  9.989004    1.463   0.817   3.139   2.132   1.531   1.380     0.906     2.754     2.617    7.539    5.746    5.643    3.924   0.190
 10.000000    1.479   0.824   3.153   2.135   1.529   1.378     0.908     2.765     2.631    7.540    5.761    5.644    3.931   0.190
 10.010724    1.485   0.819   3.163   2.130   1.528   1.377     0.910     2.774     2.644    7.540    5.776    5.646    3.938   0.190
 10.021190    1.486   0.806   3.170   2.119   1.527   1.377     0.911     2.783     2.654    7.540    5.791    5.650    3.944   0.190
 10.031408    1.479   0.784   3.174   2.102   1.528   1.377     0.911     2.791     2.663    7.540    5.806    5.655    3.950   0.189
 10.041392    1.463   0.748   3.175   2.077   1.529   1.378     0.909     2.794     2.665    7.537    5.819    5.662    3.956   0.189
 10.051152    1.522   0.827   3.206   2.114   1.518   1.369     0.903     2.779     2.649    7.533    5.810    5.638    3.954   0.187
 10.060698    1.568   0.898   3.228   2.146   1.506   1.361     0.898     2.764     2.634    7.529    5.788    5.605    3.946   0.185
 10.070038    1.610   0.961   3.248   2.173   1.495   1.353     0.892     2.749     2.618    7.524    5.765    5.575    3.938   0.183
 10.079182    1.645   1.016   3.265   2.196   1.486   1.346     0.886     2.734     2.601    7.520    5.742    5.547    3.929   0.181
 10.088136    1.677   1.065   3.279   2.214   1.478   1.340     0.879     2.718     2.582    7.515    5.719    5.521    3.920   0.179
 10.096910    1.702   1.105   3.290   2.226   1.470   1.335     0.873     2.702     2.563    7.511    5.697    5.496    3.910   0.177
 10.105510    1.720   1.135   3.296   2.232   1.464   1.331     0.866     2.686     2.544    7.507    5.674    5.472    3.899   0.176
 10.113943    1.729   1.152   3.299   2.231   1.459   1.327     0.859     2.669     2.523    7.503    5.652    5.449    3.887   0.175
 10.122216    1.730   1.158   3.297   2.223   1.454   1.324     0.852     2.652     2.502    7.499    5.630    5.428    3.874   0.173
 10.130334    1.721   1.152   3.290   2.207   1.451   1.322     0.845     2.635     2.480    7.495    5.607    5.406    3.860   0.172
 10.138303    1.701   1.130   3.277   2.183   1.450   1.321     0.838     2.618     2.458    7.491    5.584    5.386    3.844   0.172
 10.146128    1.710   1.143   3.279   2.181   1.446   1.318     0.831     2.602     2.436    7.486    5.568    5.370    3.834   0.171
 10.153815    1.754   1.194   3.302   2.211   1.442   1.315     0.828     2.596     2.428    7.484    5.574    5.373    3.840   0.170
 10.161368    1.797   1.243   3.325   2.240   1.438   1.313     0.826     2.591     2.421    7.483    5.580    5.375    3.846   0.170
 10.168792    1.839   1.290   3.347   2.268   1.435   1.310     0.824     2.585     2.414    7.481    5.587    5.378    3.851   0.169
 10.176091    1.878   1.335   3.367   2.295   1.432   1.307     0.821     2.580     2.407    7.479    5.593    5.380    3.856   0.169
 10.183270    1.915   1.379   3.387   2.321   1.429   1.305     0.819     2.575     2.401    7.477    5.599    5.382    3.861   0.168
 10.190331    1.951   1.420   3.406   2.346   1.426   1.302     0.817     2.570     2.395    7.475    5.604    5.384    3.865   0.168
 10.197281    1.987   1.461   3.424   2.371   1.423   1.300     0.815     2.565     2.389    7.473    5.610    5.386    3.870   0.168
 10.204120    2.020   1.500   3.442   2.395   1.420   1.298     0.814     2.560     2.384    7.471    5.616    5.388    3.874   0.167
 10.210854    2.055   1.540   3.459   2.418   1.417   1.296     0.812     2.555     2.379    7.470    5.621    5.390    3.878   0.167
 10.217484    2.089   1.578   3.476   2.441   1.415   1.293     0.810     2.550     2.374    7.468    5.625    5.392    3.882   0.167
 10.224015    2.122   1.615   3.493   2.464   1.412   1.291     0.808     2.546     2.368    7.466    5.630    5.394    3.886   0.166
 10.230449    2.154   1.652   3.509   2.486   1.409   1.289     0.806     2.541     2.363    7.464    5.635    5.395    3.890   0.166
 10.236789    2.184   1.688   3.525   2.507   1.407   1.287     0.805     2.536     2.358    7.462    5.640    5.397    3.894   0.166
 10.243038    2.215   1.723   3.540   2.529   1.405   1.285     0.803     2.531     2.353    7.460    5.645    5.399    3.897   0.165
 10.249198    2.247   1.762   3.557   2.552   1.402   1.283     0.803     2.533     2.356    7.462    5.650    5.402    3.901   0.165
 10.255273    2.228   1.740   3.545   2.536   1.401   1.283     0.804     2.537     2.362    7.460    5.629    5.383    3.891   0.164
 10.261263    2.269   1.809   3.561   2.572   1.392   1.276     0.805     2.540     2.369    7.458    5.606    5.355    3.879   0.163
 10.267172    2.309   1.875   3.577   2.607   1.384   1.271     0.806     2.543     2.376    7.457    5.584    5.329    3.869   0.161
 10.273002    2.349   1.940   3.593   2.641   1.377   1.265     0.807     2.547     2.383    7.456    5.564    5.306    3.859   0.160
 10.278753    2.386   2.002   3.609   2.674   1.369   1.260     0.808     2.550     2.390    7.454    5.546    5.284    3.850   0.159
 10.284431    2.424   2.063   3.624   2.706   1.363   1.255     0.809     2.553     2.396    7.453    5.529    5.263    3.841   0.157
 10.290034    2.460   2.122   3.639   2.737   1.356   1.251     0.810     2.556     2.403    7.451    5.513    5.244    3.833   0.156
 10.295568    2.495   2.180   3.654   2.767   1.350   1.246     0.810     2.559     2.410    7.450    5.498    5.226    3.826   0.155
 10.301030    2.530   2.235   3.668   2.797   1.344   1.242     0.811     2.562     2.416    7.448    5.485    5.210    3.820   0.154
