#                                                     Thu Jun  9 01:04:20 2016
#          I------------------------------------------------------------------------------------------------------------------------I
#          I                                                                                                                        I
#          I      BC_GALAXEV  ---  MODEL PARAMETERS:   Generic file name for this model = bc2003_hr_xmiless_m62_kroup_ssp           I
#          I                                                                                                                        I
#          I      TRACKS: Padova (1994) + S. Charlot (1997). X=0.70, Y=0.28, Z=0.02                                                 I
#          I                                                                                                                        I
#          I      S.F.R.: SSP = Zero Length Burst at t = 0                                                                          I
#          I                                                                                                                        I
#          I                                                                                                                        I
#          I      I.M.F.: Power law ( 2 segments):                                                                                  I
#          I                                                                      mass in      number                               I
#          I                                              x   from m     to m     segment    of stars      c                        I
#          I                                           0.30     0.10     0.50      0.2668      1.1434  4.4891E-01                   I
#          I                                           1.30     0.50   100.00      0.7332      0.4247  2.2446E-01                   I
#          I                                                                                                                        I
#          I                                                           totals      1.0000      1.5681  0.6377 Mo/star               I
#          I                                                                                                                        I
#          I                                                                                                                        I
#          I                                                                                                                        I
#          I                                                                                                                        I
#          I      LISTED: Rest frame properties                                                                                     I
#          I                                                                                                                        I
#          I                                                                                                                        I
#          I                              (C) 1995-2015 G. Bruzual A. & S. Charlot - All Rights Reserved                            I
#          I------------------------------------------------------------------------------------------------------------------------I
#
#    (1)       (2)     (3)     (4)     (5)     (6)     (7)      (8)       (9)       (10)     (11)     (12)     (13)     (14)    (15)
#
# Index_No.   WO-1:   WO-2:   WO-3:   WO-4:   GC-1:   4000A   DTT-Ca1   DTT-Ca2   DTT-Ca3  DTT-MgI    DM-04    DM-04    DM-04     BH:
# log-age   HdeltaA HgammaA HdeltaF HgammaF D(4000)   B4_VN  CaII8498  CaII8542  CaII8662  MgI8807  H8_3889  H9_3835 H10_3798   BH-HK
#   (yr)       (A)     (A)     (A)     (A)      .       .        (A)       (A)       (A)      (A)      (A)      (A)      (A)      (A)
  5.000000    3.308   3.478   2.970   3.043   0.938   0.967     0.447     0.394     0.686    7.500    2.535    2.209    1.807   0.041
  5.149989    3.308   3.478   2.970   3.043   0.938   0.967     0.447     0.394     0.686    7.500    2.535    2.209    1.807   0.041
  5.200002    3.308   3.478   2.970   3.043   0.938   0.967     0.447     0.394     0.686    7.500    2.535    2.209    1.807   0.041
  5.250005    3.308   3.478   2.970   3.043   0.938   0.967     0.447     0.394     0.686    7.500    2.535    2.209    1.807   0.041
  5.300008    3.308   3.478   2.970   3.043   0.938   0.967     0.447     0.394     0.686    7.500    2.535    2.209    1.807   0.041
  5.349996    3.308   3.478   2.970   3.043   0.938   0.967     0.447     0.394     0.686    7.500    2.535    2.209    1.807   0.041
  5.400002    3.308   3.478   2.970   3.043   0.938   0.967     0.447     0.394     0.686    7.500    2.535    2.209    1.807   0.041
  5.450003    3.308   3.478   2.970   3.043   0.938   0.967     0.447     0.394     0.686    7.500    2.535    2.209    1.807   0.041
  5.500003    3.308   3.478   2.970   3.043   0.938   0.967     0.447     0.394     0.686    7.500    2.535    2.209    1.807   0.041
  5.550008    3.308   3.478   2.970   3.043   0.938   0.967     0.447     0.394     0.686    7.500    2.535    2.209    1.807   0.041
  5.600003    3.308   3.478   2.970   3.043   0.938   0.967     0.447     0.394     0.686    7.500    2.535    2.209    1.807   0.041
  5.650006    3.308   3.478   2.970   3.043   0.938   0.967     0.447     0.394     0.686    7.500    2.535    2.209    1.807   0.041
  5.700002    3.308   3.478   2.970   3.043   0.938   0.967     0.447     0.394     0.686    7.500    2.535    2.209    1.807   0.041
  5.749999    3.308   3.478   2.970   3.043   0.938   0.967     0.447     0.394     0.686    7.500    2.535    2.209    1.807   0.041
  5.800002    3.308   3.478   2.970   3.043   0.938   0.967     0.447     0.394     0.686    7.500    2.535    2.209    1.807   0.041
  5.850003    3.308   3.478   2.970   3.043   0.938   0.967     0.447     0.394     0.686    7.500    2.535    2.209    1.807   0.041
  5.900001    3.308   3.478   2.970   3.043   0.938   0.967     0.447     0.394     0.686    7.500    2.535    2.209    1.807   0.041
  5.950005    3.308   3.478   2.970   3.043   0.938   0.967     0.447     0.394     0.686    7.500    2.535    2.209    1.807   0.041
  6.000000    3.301   3.469   2.966   3.036   0.938   0.967     0.446     0.393     0.689    7.500    2.527    2.200    1.803   0.040
  6.019988    3.294   3.460   2.961   3.029   0.938   0.967     0.446     0.391     0.692    7.500    2.518    2.191    1.798   0.040
  6.040009    3.286   3.450   2.956   3.022   0.938   0.967     0.445     0.390     0.695    7.501    2.509    2.182    1.793   0.040
  6.060018    3.278   3.438   2.950   3.014   0.938   0.967     0.445     0.388     0.698    7.501    2.498    2.172    1.788   0.040
  6.080013    3.262   3.418   2.938   2.997   0.938   0.967     0.444     0.385     0.700    7.501    2.481    2.157    1.778   0.040
  6.099991    3.242   3.394   2.922   2.978   0.937   0.967     0.444     0.382     0.702    7.502    2.460    2.140    1.768   0.039
  6.120014    3.221   3.370   2.905   2.959   0.937   0.967     0.444     0.379     0.703    7.502    2.439    2.123    1.757   0.039
  6.140005    3.199   3.346   2.889   2.939   0.937   0.967     0.444     0.376     0.705    7.502    2.418    2.106    1.747   0.039
  6.159988    3.175   3.321   2.871   2.918   0.937   0.966     0.444     0.373     0.706    7.502    2.395    2.089    1.736   0.038
  6.180011    3.149   3.295   2.852   2.897   0.937   0.966     0.444     0.370     0.708    7.503    2.371    2.072    1.725   0.038
  6.200002    3.121   3.268   2.831   2.874   0.937   0.966     0.444     0.366     0.709    7.503    2.346    2.054    1.713   0.037
  6.220004    3.091   3.240   2.810   2.852   0.936   0.966     0.445     0.362     0.710    7.503    2.320    2.036    1.701   0.037
  6.240000    3.064   3.217   2.792   2.832   0.936   0.966     0.445     0.358     0.710    7.502    2.297    2.020    1.692   0.037
  6.260000    3.043   3.203   2.780   2.821   0.936   0.966     0.444     0.354     0.709    7.502    2.281    2.010    1.686   0.036
  6.280009    3.020   3.187   2.767   2.809   0.936   0.965     0.443     0.347     0.703    7.501    2.263    2.000    1.680   0.036
  6.300008    2.994   3.170   2.752   2.794   0.935   0.965     0.440     0.338     0.692    7.501    2.244    1.989    1.674   0.036
  6.320001    2.963   3.150   2.734   2.778   0.935   0.965     0.436     0.326     0.677    7.500    2.221    1.977    1.666   0.036
  6.340008    2.929   3.129   2.714   2.761   0.934   0.965     0.431     0.311     0.656    7.499    2.196    1.965    1.659   0.035
  6.360006    2.892   3.107   2.691   2.743   0.934   0.964     0.425     0.293     0.630    7.498    2.170    1.953    1.653   0.035
  6.379994    2.835   3.035   2.659   2.688   0.933   0.964     0.420     0.264     0.600    7.497    2.103    1.899    1.629   0.034
  6.400002    2.747   2.912   2.599   2.595   0.932   0.963     0.416     0.235     0.573    7.497    1.998    1.816    1.594   0.032
  6.420005    2.680   2.869   2.553   2.558   0.932   0.962     0.407     0.217     0.544    7.496    1.951    1.806    1.589   0.031
  6.439995    2.606   2.820   2.504   2.519   0.931   0.962     0.399     0.194     0.508    7.496    1.897    1.785    1.578   0.030
  6.459995    2.414   2.658   2.350   2.383   0.931   0.962     0.419     0.273     0.688    7.504    1.755    1.681    1.487   0.028
  6.480007    2.250   2.536   2.221   2.282   0.933   0.963     0.435     0.320     0.797    7.500    1.673    1.670    1.467   0.027
  6.500003    2.296   2.595   2.286   2.350   0.935   0.964     0.448     0.331     0.823    7.500    1.742    1.750    1.553   0.028
  6.519999    2.304   2.583   2.301   2.361   0.939   0.965     0.484     0.384     0.919    7.495    1.784    1.783    1.591   0.029
  6.540004    2.345   2.573   2.328   2.384   0.946   0.968     0.557     0.490     1.100    7.488    1.843    1.833    1.658   0.031
  6.560002    2.372   2.585   2.349   2.430   0.956   0.973     0.658     0.632     1.362    7.482    1.944    1.882    1.742   0.034
  6.580001    2.392   2.612   2.365   2.481   0.965   0.977     0.743     0.752     1.577    7.477    2.036    1.939    1.832   0.036
  6.600003    2.422   2.609   2.377   2.498   0.972   0.980     0.792     0.828     1.709    7.475    2.088    1.966    1.886   0.037
  6.620001    2.437   2.615   2.386   2.512   0.975   0.982     0.809     0.875     1.789    7.474    2.125    1.994    1.919   0.038
  6.640004    2.436   2.667   2.405   2.541   0.974   0.982     0.792     0.893     1.821    7.474    2.165    2.048    1.942   0.038
  6.660002    2.531   2.724   2.488   2.619   0.976   0.983     0.804     0.918     1.844    7.474    2.296    2.137    2.022   0.040
  6.680000    2.623   2.740   2.562   2.699   0.985   0.988     0.862     1.046     1.968    7.481    2.402    2.231    2.102   0.043
  6.700002    2.691   2.751   2.626   2.767   0.991   0.992     0.914     1.273     2.117    7.503    2.491    2.333    2.165   0.046
  6.720002    2.668   2.712   2.626   2.760   0.993   0.994     0.946     1.583     2.318    7.538    2.498    2.391    2.172   0.048
  6.739999    2.612   2.611   2.610   2.721   0.994   0.997     0.985     1.962     2.567    7.582    2.522    2.441    2.186   0.050
  6.760000    2.544   2.503   2.559   2.664   1.000   1.002     1.026     2.184     2.729    7.601    2.535    2.445    2.195   0.052
  6.780000    2.590   2.596   2.578   2.697   0.996   0.999     1.023     2.137     2.708    7.591    2.519    2.449    2.188   0.051
  6.800002    2.674   2.714   2.648   2.767   0.996   0.998     1.047     2.260     2.795    7.599    2.574    2.522    2.218   0.051
  6.819998    2.751   2.799   2.713   2.830   0.996   0.998     1.072     2.385     2.900    7.606    2.643    2.582    2.261   0.052
  6.839999    2.836   2.890   2.785   2.897   0.997   0.998     1.104     2.537     3.024    7.615    2.718    2.649    2.307   0.052
  6.860003    2.931   2.983   2.865   2.964   0.997   0.997     1.142     2.717     3.168    7.628    2.800    2.721    2.356   0.053
  6.880002    3.043   3.084   2.960   3.036   0.997   0.997     1.188     2.926     3.329    7.645    2.896    2.806    2.410   0.054
  6.900001    3.183   3.202   3.079   3.117   0.998   0.997     1.241     3.163     3.507    7.665    3.016    2.914    2.475   0.055
  6.919998    3.351   3.333   3.225   3.206   0.999   0.998     1.297     3.416     3.697    7.688    3.163    3.051    2.549   0.057
  6.939998    3.549   3.507   3.399   3.310   1.000   0.999     1.349     3.621     3.839    7.710    3.329    3.223    2.627   0.059
  6.960000    3.777   3.795   3.585   3.526   1.005   1.003     1.300     3.567     3.754    7.684    3.507    3.421    2.729   0.063
  6.979999    3.863   3.849   3.656   3.620   1.016   1.010     1.274     3.492     3.679    7.668    3.614    3.535    2.799   0.067
  7.000000    3.941   3.889   3.721   3.699   1.026   1.016     1.251     3.435     3.612    7.651    3.714    3.640    2.864   0.072
  7.019988    4.024   3.938   3.790   3.779   1.036   1.022     1.230     3.378     3.545    7.636    3.814    3.742    2.929   0.075
  7.040009    4.110   3.996   3.859   3.857   1.044   1.027     1.214     3.322     3.474    7.623    3.909    3.837    2.990   0.079
  7.060018    4.199   4.064   3.930   3.932   1.051   1.031     1.202     3.266     3.401    7.612    3.998    3.923    3.046   0.081
  7.080013    4.296   4.150   4.005   4.010   1.056   1.033     1.196     3.209     3.324    7.605    4.084    4.001    3.098   0.083
  7.099991    4.399   4.258   4.083   4.088   1.057   1.033     1.195     3.143     3.248    7.604    4.159    4.064    3.142   0.084
  7.119981    4.481   4.410   4.133   4.138   1.049   1.027     1.204     3.072     3.151    7.605    4.186    4.052    3.148   0.082
  7.140005    4.506   4.421   4.150   4.135   1.050   1.028     1.215     3.091     3.153    7.610    4.229    4.067    3.166   0.082
  7.159988    4.534   4.426   4.170   4.128   1.052   1.029     1.232     3.144     3.188    7.617    4.275    4.084    3.185   0.083
  7.180011    4.578   4.454   4.201   4.134   1.053   1.030     1.243     3.192     3.221    7.622    4.329    4.106    3.208   0.084
  7.200002    4.641   4.510   4.246   4.156   1.053   1.030     1.249     3.232     3.251    7.626    4.392    4.134    3.236   0.084
  7.220004    4.720   4.594   4.302   4.194   1.053   1.029     1.248     3.263     3.278    7.628    4.456    4.162    3.264   0.084
  7.240000    4.830   4.725   4.378   4.259   1.051   1.027     1.237     3.285     3.302    7.628    4.532    4.198    3.297   0.084
  7.260000    4.964   4.920   4.469   4.357   1.046   1.023     1.208     3.257     3.302    7.626    4.601    4.228    3.328   0.083
  7.280009    5.077   5.081   4.548   4.449   1.044   1.020     1.190     3.196     3.250    7.617    4.665    4.266    3.362   0.082
  7.300008    5.106   5.095   4.576   4.471   1.048   1.022     1.188     3.191     3.263    7.616    4.728    4.296    3.398   0.083
  7.320001    5.172   5.143   4.626   4.514   1.052   1.024     1.191     3.191     3.273    7.616    4.794    4.349    3.434   0.085
  7.340008    5.245   5.199   4.681   4.562   1.056   1.027     1.192     3.189     3.285    7.616    4.866    4.407    3.473   0.087
  7.360006    5.321   5.259   4.739   4.614   1.061   1.029     1.193     3.185     3.297    7.615    4.939    4.467    3.513   0.089
  7.379994    5.404   5.327   4.801   4.671   1.065   1.031     1.191     3.177     3.310    7.614    5.018    4.530    3.556   0.091
  7.400002    5.493   5.404   4.866   4.733   1.070   1.034     1.188     3.165     3.324    7.613    5.101    4.597    3.601   0.093
  7.420005    5.589   5.488   4.936   4.799   1.074   1.036     1.181     3.147     3.339    7.612    5.186    4.666    3.647   0.095
  7.439995    5.688   5.579   5.006   4.869   1.079   1.038     1.171     3.123     3.355    7.610    5.273    4.737    3.693   0.097
  7.462398    5.799   5.684   5.084   4.949   1.084   1.041     1.156     3.088     3.371    7.607    5.367    4.814    3.744   0.099
  7.477121    5.871   5.756   5.134   5.002   1.087   1.042     1.142     3.055     3.379    7.605    5.426    4.863    3.775   0.100
  7.491362    5.935   5.841   5.177   5.061   1.088   1.042     1.117     2.976     3.346    7.597    5.473    4.899    3.801   0.101
  7.505150    6.008   5.927   5.229   5.118   1.089   1.042     1.091     2.923     3.334    7.592    5.519    4.939    3.828   0.102
  7.518514    6.034   5.934   5.248   5.132   1.092   1.045     1.079     2.913     3.344    7.593    5.555    4.969    3.848   0.103
  7.531479    6.053   5.937   5.261   5.141   1.095   1.047     1.068     2.901     3.352    7.595    5.586    4.991    3.864   0.104
  7.544068    6.076   5.944   5.276   5.153   1.099   1.048     1.056     2.889     3.359    7.595    5.618    5.015    3.882   0.105
  7.556303    6.101   5.955   5.294   5.167   1.102   1.050     1.044     2.876     3.365    7.596    5.652    5.040    3.900   0.106
  7.568202    6.128   5.968   5.313   5.183   1.105   1.052     1.031     2.862     3.371    7.597    5.687    5.067    3.920   0.107
  7.579783    6.154   5.981   5.332   5.198   1.108   1.054     1.019     2.848     3.375    7.597    5.721    5.094    3.939   0.108
  7.591064    6.182   5.996   5.352   5.215   1.111   1.055     1.006     2.834     3.379    7.598    5.755    5.121    3.959   0.109
  7.602060    6.213   6.015   5.374   5.233   1.114   1.057     0.994     2.820     3.382    7.598    5.791    5.150    3.980   0.110
  7.628389    6.300   6.077   5.437   5.287   1.120   1.061     0.965     2.783     3.385    7.598    5.881    5.226    4.033   0.113
  7.653213    6.393   6.151   5.503   5.346   1.126   1.064     0.935     2.744     3.380    7.597    5.968    5.301    4.085   0.115
  7.676693    6.486   6.232   5.570   5.407   1.131   1.066     0.905     2.701     3.369    7.595    6.050    5.371    4.135   0.117
  7.698970    6.578   6.321   5.635   5.469   1.134   1.067     0.871     2.646     3.353    7.592    6.129    5.433    4.182   0.118
  7.720160    6.682   6.442   5.710   5.542   1.135   1.066     0.850     2.598     3.340    7.584    6.206    5.485    4.226   0.118
  7.740363    6.724   6.466   5.742   5.555   1.140   1.068     0.858     2.603     3.356    7.583    6.269    5.525    4.262   0.119
  7.756545    6.758   6.482   5.770   5.564   1.144   1.070     0.870     2.621     3.373    7.584    6.324    5.560    4.293   0.120
  7.806546    6.918   6.595   5.888   5.632   1.156   1.074     0.905     2.658     3.418    7.584    6.532    5.682    4.403   0.122
  7.856548    7.172   6.850   6.064   5.782   1.162   1.073     0.920     2.638     3.432    7.577    6.755    5.805    4.518   0.123
  7.906545    7.316   6.946   6.140   5.849   1.175   1.079     0.911     2.626     3.425    7.569    6.920    5.893    4.595   0.127
  7.956543    7.467   7.036   6.230   5.922   1.188   1.086     0.912     2.637     3.432    7.563    7.073    6.008    4.675   0.131
  8.006552    7.669   7.209   6.364   6.055   1.198   1.092     0.903     2.612     3.431    7.550    7.209    6.147    4.758   0.135
  8.056561    7.945   7.505   6.546   6.254   1.204   1.094     0.889     2.558     3.405    7.531    7.367    6.308    4.866   0.139
  8.106531    8.166   7.665   6.690   6.363   1.218   1.104     0.928     2.626     3.386    7.489    7.523    6.490    4.971   0.145
  8.156549    8.392   7.832   6.858   6.498   1.232   1.113     0.941     2.651     3.386    7.497    7.701    6.703    5.088   0.150
  8.206556    8.650   8.057   7.041   6.661   1.248   1.123     0.933     2.628     3.357    7.498    7.907    6.922    5.210   0.156
  8.256550    8.974   8.396   7.241   6.873   1.261   1.129     0.896     2.534     3.267    7.491    8.120    7.108    5.313   0.161
  8.306554    9.369   8.789   7.465   7.095   1.277   1.136     0.882     2.497     3.197    7.499    8.347    7.292    5.420   0.169
  8.356543    9.651   8.990   7.625   7.202   1.302   1.151     0.916     2.566     3.202    7.509    8.587    7.494    5.508   0.177
  8.406540    9.967   9.221   7.789   7.310   1.330   1.167     0.944     2.626     3.192    7.517    8.853    7.707    5.592   0.185
  8.456549   10.356   9.519   7.966   7.433   1.366   1.188     0.956     2.651     3.173    7.521    9.145    7.931    5.664   0.196
  8.506546   10.683   9.763   8.079   7.507   1.405   1.212     0.945     2.634     3.152    7.522    9.393    8.110    5.680   0.208
  8.556543   10.788   9.811   8.039   7.466   1.441   1.237     0.905     2.563     3.135    7.517    9.477    8.167    5.607   0.217
  8.606543   10.741   9.735   7.893   7.346   1.478   1.264     0.847     2.481     3.120    7.519    9.424    8.136    5.473   0.226
  8.656549   10.458   9.345   7.609   7.049   1.522   1.298     0.838     2.506     3.177    7.537    9.287    8.045    5.288   0.235
  8.706547    9.964   8.724   7.224   6.640   1.566   1.333     0.862     2.585     3.230    7.568    9.032    7.908    5.075   0.243
  8.756545    9.361   8.040   6.804   6.217   1.595   1.359     0.878     2.636     3.231    7.603    8.705    7.710    4.875   0.247
  8.806546    8.743   7.414   6.398   5.844   1.612   1.376     0.864     2.622     3.177    7.637    8.332    7.493    4.692   0.248
  8.856547    7.938   6.589   5.872   5.362   1.631   1.399     0.852     2.617     3.134    7.680    7.818    7.195    4.451   0.249
  8.906550    6.937   5.521   5.260   4.772   1.650   1.424     0.863     2.648     3.113    7.722    7.227    6.850    4.169   0.250
  8.956548    5.726   4.189   4.578   4.055   1.664   1.446     0.918     2.775     3.159    7.727    6.591    6.484    3.858   0.248
  9.006552    4.230   2.508   3.781   3.144   1.688   1.478     1.014     2.992     3.291    7.731    5.851    6.096    3.527   0.248
  9.056561    2.809   0.818   3.057   2.213   1.736   1.528     1.146     3.270     3.402    7.750    5.230    5.781    3.257   0.254
  9.106565    2.536   0.602   2.893   2.117   1.710   1.513     1.155     3.274     3.336    7.690    4.891    5.662    3.085   0.255
  9.156549    1.903  -0.149   2.546   1.691   1.729   1.535     1.189     3.362     3.473    7.694    4.475    5.560    2.889   0.261
  9.206556    1.262  -0.972   2.203   1.223   1.756   1.564     1.202     3.408     3.486    7.692    4.168    5.445    2.698   0.267
  9.225309    1.026  -1.284   2.080   1.052   1.766   1.576     1.205     3.418     3.480    7.691    4.088    5.397    2.620   0.268
  9.230449    0.960  -1.373   2.046   1.003   1.769   1.580     1.207     3.421     3.478    7.690    4.069    5.383    2.597   0.269
  9.255273    0.630  -1.818   1.872   0.763   1.788   1.600     1.215     3.433     3.468    7.689    3.946    5.324    2.490   0.271
  9.278753    0.383  -2.121   1.756   0.598   1.807   1.618     1.223     3.443     3.449    7.686    3.874    5.290    2.425   0.272
  9.301030    0.223  -2.291   1.678   0.497   1.825   1.635     1.229     3.450     3.430    7.684    3.834    5.256    2.384   0.273
  9.322219    0.072  -2.427   1.599   0.415   1.844   1.652     1.231     3.453     3.409    7.681    3.795    5.211    2.331   0.274
  9.342422   -0.070  -2.567   1.535   0.326   1.864   1.671     1.229     3.450     3.385    7.678    3.729    5.204    2.284   0.275
  9.361728   -0.162  -2.739   1.498   0.235   1.880   1.687     1.230     3.450     3.369    7.674    3.720    5.249    2.260   0.277
  9.380211   -0.221  -2.842   1.472   0.179   1.890   1.697     1.231     3.451     3.353    7.669    3.699    5.291    2.245   0.278
  9.397940   -0.341  -3.006   1.419   0.078   1.904   1.711     1.240     3.471     3.368    7.669    3.650    5.320    2.223   0.279
  9.414973   -0.379  -3.072   1.404   0.042   1.911   1.718     1.243     3.475     3.369    7.665    3.643    5.330    2.207   0.280
  9.439333   -0.572  -3.309   1.318  -0.098   1.934   1.740     1.251     3.492     3.378    7.660    3.630    5.311    2.187   0.281
  9.477121   -1.078  -3.901   1.097  -0.454   2.000   1.798     1.275     3.544     3.394    7.654    3.523    5.311    2.143   0.285
  9.511884   -1.264  -4.126   1.020  -0.585   2.023   1.818     1.280     3.558     3.398    7.653    3.461    5.332    2.107   0.286
  9.544068   -1.384  -4.269   0.969  -0.670   2.035   1.830     1.276     3.551     3.381    7.648    3.412    5.351    2.066   0.286
  9.574031   -1.486  -4.387   0.923  -0.738   2.043   1.838     1.274     3.549     3.394    7.653    3.378    5.357    2.025   0.285
  9.602060   -1.641  -4.564   0.851  -0.843   2.060   1.854     1.279     3.553     3.392    7.652    3.346    5.337    1.984   0.285
  9.628389   -1.785  -4.731   0.784  -0.939   2.076   1.869     1.284     3.557     3.391    7.653    3.322    5.310    1.939   0.285
  9.653213   -1.926  -4.895   0.717  -1.034   2.091   1.885     1.287     3.558     3.389    7.656    3.300    5.275    1.895   0.285
  9.676694   -2.045  -5.025   0.658  -1.112   2.102   1.896     1.288     3.557     3.393    7.660    3.273    5.241    1.862   0.285
  9.698970   -2.184  -5.177   0.589  -1.201   2.118   1.912     1.292     3.569     3.404    7.657    3.256    5.190    1.841   0.286
  9.720160   -2.299  -5.302   0.532  -1.274   2.132   1.925     1.295     3.578     3.411    7.654    3.240    5.143    1.829   0.287
  9.740363   -2.404  -5.415   0.480  -1.342   2.144   1.937     1.297     3.585     3.415    7.653    3.226    5.099    1.819   0.287
  9.759667   -2.493  -5.512   0.435  -1.401   2.156   1.948     1.298     3.588     3.416    7.653    3.214    5.057    1.813   0.288
  9.778152   -2.573  -5.595   0.397  -1.452   2.167   1.959     1.297     3.589     3.413    7.654    3.200    5.024    1.807   0.289
  9.795880   -2.637  -5.658   0.368  -1.493   2.177   1.967     1.295     3.585     3.408    7.656    3.185    4.999    1.802   0.289
  9.812913   -2.712  -5.729   0.335  -1.540   2.188   1.976     1.295     3.585     3.405    7.656    3.166    4.975    1.798   0.290
  9.829304   -2.791  -5.804   0.300  -1.590   2.199   1.986     1.296     3.588     3.403    7.653    3.145    4.952    1.797   0.290
  9.845098   -2.873  -5.879   0.265  -1.638   2.211   1.996     1.297     3.590     3.401    7.651    3.123    4.931    1.796   0.291
  9.860338   -2.957  -5.955   0.230  -1.687   2.223   2.006     1.298     3.593     3.399    7.649    3.101    4.912    1.793   0.291
  9.875061   -3.046  -6.034   0.193  -1.737   2.237   2.017     1.299     3.596     3.397    7.647    3.076    4.893    1.789   0.292
  9.889301   -3.140  -6.117   0.156  -1.789   2.251   2.029     1.299     3.598     3.395    7.646    3.048    4.874    1.784   0.292
  9.903090   -3.236  -6.199   0.118  -1.840   2.265   2.041     1.300     3.600     3.392    7.644    3.019    4.858    1.778   0.293
  9.916454   -3.333  -6.282   0.081  -1.891   2.281   2.053     1.300     3.602     3.390    7.642    2.989    4.844    1.770   0.294
  9.929419   -3.430  -6.365   0.044  -1.941   2.296   2.065     1.301     3.603     3.387    7.641    2.961    4.828    1.764   0.294
  9.942008   -3.525  -6.445   0.007  -1.990   2.311   2.078     1.301     3.605     3.385    7.639    2.935    4.812    1.756   0.295
  9.954243   -3.619  -6.525  -0.028  -2.038   2.325   2.089     1.301     3.606     3.382    7.638    2.910    4.797    1.750   0.295
  9.966142   -3.709  -6.600  -0.062  -2.083   2.339   2.101     1.301     3.607     3.380    7.637    2.886    4.784    1.745   0.295
  9.977724   -3.796  -6.670  -0.095  -2.125   2.353   2.111     1.301     3.608     3.377    7.636    2.861    4.774    1.742   0.296
  9.989004   -3.877  -6.733  -0.123  -2.162   2.365   2.121     1.300     3.608     3.374    7.635    2.836    4.769    1.741   0.296
 10.000000   -3.951  -6.790  -0.150  -2.197   2.376   2.129     1.299     3.608     3.370    7.634    2.814    4.764    1.744   0.296
 10.010724   -4.022  -6.843  -0.174  -2.228   2.386   2.137     1.298     3.608     3.366    7.633    2.795    4.760    1.748   0.297
 10.021190   -4.088  -6.893  -0.196  -2.257   2.396   2.144     1.296     3.607     3.363    7.632    2.776    4.758    1.754   0.297
 10.031408   -4.150  -6.938  -0.216  -2.284   2.404   2.150     1.295     3.605     3.359    7.631    2.760    4.757    1.759   0.297
 10.041392   -4.206  -6.979  -0.234  -2.307   2.412   2.156     1.293     3.604     3.355    7.631    2.746    4.753    1.762   0.297
 10.051152   -4.257  -7.016  -0.250  -2.330   2.419   2.161     1.292     3.603     3.351    7.630    2.735    4.748    1.766   0.297
 10.060698   -4.303  -7.050  -0.265  -2.350   2.425   2.166     1.290     3.601     3.347    7.630    2.723    4.743    1.769   0.297
 10.070038   -4.346  -7.082  -0.279  -2.369   2.431   2.170     1.288     3.599     3.343    7.629    2.713    4.738    1.772   0.297
 10.079182   -4.387  -7.112  -0.292  -2.387   2.437   2.174     1.286     3.597     3.339    7.629    2.704    4.732    1.775   0.297
 10.088136   -4.427  -7.141  -0.305  -2.404   2.442   2.178     1.284     3.594     3.334    7.629    2.695    4.727    1.777   0.296
 10.096910   -4.460  -7.162  -0.315  -2.418   2.445   2.180     1.280     3.590     3.330    7.630    2.686    4.723    1.778   0.296
 10.105510   -4.513  -7.201  -0.334  -2.441   2.452   2.186     1.281     3.591     3.330    7.631    2.674    4.716    1.779   0.296
 10.113943   -4.567  -7.240  -0.353  -2.464   2.461   2.193     1.281     3.592     3.329    7.630    2.663    4.707    1.780   0.297
 10.122216   -4.620  -7.279  -0.372  -2.486   2.469   2.199     1.281     3.593     3.328    7.629    2.652    4.698    1.780   0.297
 10.130334   -4.672  -7.317  -0.390  -2.508   2.477   2.206     1.282     3.595     3.327    7.629    2.642    4.689    1.779   0.297
 10.138303   -4.723  -7.354  -0.409  -2.530   2.485   2.212     1.282     3.596     3.326    7.628    2.633    4.681    1.777   0.297
 10.146128   -4.774  -7.390  -0.427  -2.551   2.493   2.218     1.283     3.598     3.324    7.628    2.623    4.673    1.775   0.297
 10.153815   -4.823  -7.424  -0.444  -2.571   2.501   2.224     1.283     3.599     3.323    7.627    2.614    4.666    1.772   0.297
 10.161368   -4.871  -7.458  -0.461  -2.591   2.509   2.231     1.283     3.600     3.322    7.627    2.607    4.659    1.768   0.297
 10.168792   -4.917  -7.491  -0.478  -2.610   2.516   2.236     1.284     3.601     3.321    7.626    2.600    4.651    1.764   0.298
 10.176091   -4.961  -7.521  -0.494  -2.628   2.523   2.242     1.284     3.602     3.319    7.626    2.595    4.643    1.759   0.298
 10.183270   -5.003  -7.551  -0.509  -2.645   2.530   2.248     1.285     3.603     3.318    7.625    2.590    4.635    1.754   0.298
 10.190331   -5.043  -7.579  -0.523  -2.662   2.536   2.253     1.285     3.603     3.317    7.625    2.587    4.626    1.748   0.298
 10.197281   -5.081  -7.605  -0.537  -2.677   2.542   2.257     1.285     3.604     3.315    7.624    2.586    4.617    1.742   0.298
 10.204120   -5.116  -7.629  -0.550  -2.692   2.548   2.262     1.285     3.604     3.314    7.624    2.586    4.608    1.734   0.298
 10.210854   -5.149  -7.652  -0.563  -2.705   2.553   2.266     1.286     3.605     3.313    7.623    2.586    4.600    1.726   0.298
 10.217484   -5.179  -7.673  -0.574  -2.717   2.558   2.270     1.286     3.605     3.311    7.623    2.588    4.593    1.718   0.298
 10.224015   -5.206  -7.691  -0.584  -2.728   2.562   2.274     1.286     3.605     3.310    7.622    2.591    4.585    1.708   0.298
 10.230449   -5.229  -7.707  -0.593  -2.739   2.567   2.277     1.287     3.606     3.308    7.622    2.594    4.577    1.699   0.298
 10.236789   -5.249  -7.722  -0.601  -2.748   2.570   2.280     1.287     3.606     3.307    7.622    2.597    4.569    1.690   0.298
 10.243038   -5.269  -7.736  -0.609  -2.756   2.574   2.283     1.287     3.606     3.306    7.621    2.600    4.561    1.681   0.298
 10.249198   -5.288  -7.751  -0.617  -2.765   2.578   2.286     1.287     3.607     3.305    7.621    2.604    4.553    1.674   0.298
 10.255273   -5.307  -7.765  -0.624  -2.774   2.582   2.289     1.288     3.607     3.304    7.620    2.607    4.544    1.666   0.298
 10.261263   -5.326  -7.780  -0.631  -2.783   2.585   2.292     1.288     3.607     3.303    7.620    2.611    4.536    1.658   0.298
 10.267172   -5.345  -7.794  -0.639  -2.792   2.589   2.296     1.288     3.608     3.302    7.620    2.615    4.527    1.650   0.298
 10.273002   -5.367  -7.812  -0.648  -2.803   2.594   2.300     1.289     3.608     3.299    7.619    2.620    4.517    1.642   0.298
 10.278753   -5.385  -7.826  -0.657  -2.810   2.598   2.303     1.289     3.609     3.298    7.618    2.621    4.505    1.635   0.298
 10.284431   -5.399  -7.838  -0.665  -2.815   2.601   2.306     1.287     3.607     3.295    7.617    2.621    4.494    1.628   0.298
 10.290034   -5.413  -7.850  -0.673  -2.821   2.604   2.309     1.286     3.605     3.291    7.617    2.621    4.484    1.620   0.298
 10.295568   -5.428  -7.861  -0.681  -2.826   2.607   2.311     1.284     3.603     3.288    7.616    2.621    4.474    1.612   0.298
 10.301030   -5.442  -7.873  -0.689  -2.831   2.611   2.314     1.283     3.601     3.285    7.616    2.621    4.463    1.605   0.299
