#                                                     Thu Jun  9 00:52:52 2016
#          I------------------------------------------------------------------------------------------------------------------------I
#          I                                                                                                                        I
#          I      BC_GALAXEV  ---  MODEL PARAMETERS:   Generic file name for this model = bc2003_hr_xmiless_m22_kroup_ssp           I
#          I                                                                                                                        I
#          I      TRACKS: Padova (1994) + S. Charlot (1997). X=0.7696, Y=0.2303, Z=0.0001                                           I
#          I                                                                                                                        I
#          I      S.F.R.: SSP = Zero Length Burst at t = 0                                                                          I
#          I                                                                                                                        I
#          I                                                                                                                        I
#          I      I.M.F.: Power law ( 2 segments):                                                                                  I
#          I                                                                      mass in      number                               I
#          I                                              x   from m     to m     segment    of stars      c                        I
#          I                                           0.30     0.10     0.50      0.2668      1.1434  4.4891E-01                   I
#          I                                           1.30     0.50   100.00      0.7332      0.4247  2.2446E-01                   I
#          I                                                                                                                        I
#          I                                                           totals      1.0000      1.5681  0.6377 Mo/star               I
#          I                                                                                                                        I
#          I                                                                                                                        I
#          I                                                                                                                        I
#          I                                                                                                                        I
#          I      LISTED: Rest frame properties                                                                                     I
#          I                                                                                                                        I
#          I                                                                                                                        I
#          I                              (C) 1995-2015 G. Bruzual A. & S. Charlot - All Rights Reserved                            I
#          I------------------------------------------------------------------------------------------------------------------------I
#
#    (1)         (2)       (3)       (4)       (5)       (6)
#
# Index_No.     WO-1:     WO-2:     WO-3:     WO-4:     GC-1:
# log-age     HdeltaA   HgammaA   HdeltaF   HgammaF   D(4000)
#   (yr)         (A)       (A)       (A)       (A)        . 
  5.000000      0.164     0.202     0.146    -0.263     0.819
  5.149989      0.164     0.202     0.146    -0.263     0.819
  5.200002      0.164     0.202     0.146    -0.263     0.819
  5.250005      0.164     0.202     0.146    -0.263     0.819
  5.300008      0.164     0.202     0.146    -0.263     0.819
  5.349996      0.164     0.202     0.146    -0.263     0.819
  5.400002      0.163     0.202     0.146    -0.263     0.819
  5.450003      0.163     0.201     0.145    -0.262     0.819
  5.500003      0.162     0.201     0.145    -0.261     0.819
  5.550008      0.162     0.200     0.144    -0.261     0.819
  5.600003      0.163     0.201     0.145    -0.262     0.819
  5.650006      0.163     0.201     0.146    -0.260     0.820
  5.700002      0.163     0.201     0.145    -0.261     0.820
  5.749999      0.163     0.201     0.145    -0.263     0.820
  5.800002      0.163     0.201     0.145    -0.264     0.820
  5.850003      0.164     0.204     0.147    -0.305     0.821
  5.900001      0.162     0.202     0.145    -0.293     0.821
  5.950005      0.159     0.198     0.142    -0.288     0.820
  6.000000      0.153     0.191     0.136    -0.302     0.820
  6.019988      0.149     0.188     0.134    -0.317     0.819
  6.040009      0.149     0.187     0.133    -0.311     0.819
  6.060018      0.149     0.187     0.133    -0.306     0.819
  6.080013      0.149     0.187     0.133    -0.303     0.819
  6.099991      0.148     0.186     0.133    -0.305     0.819
  6.120014      0.143     0.181     0.128    -0.327     0.819
  6.140005      0.140     0.178     0.126    -0.327     0.818
  6.159988      0.138     0.176     0.125    -0.328     0.818
  6.180011      0.136     0.174     0.123    -0.337     0.818
  6.200002      0.133     0.171     0.121    -0.351     0.818
  6.220004      0.129     0.167     0.118    -0.362     0.818
  6.240000      0.128     0.165     0.117    -0.363     0.818
  6.260000      0.126     0.163     0.116    -0.363     0.818
  6.280009      0.122     0.160     0.114    -0.376     0.818
  6.300008      0.118     0.155     0.110    -0.386     0.818
  6.320001      0.114     0.151     0.107    -0.396     0.819
  6.340008      0.110     0.147     0.104    -0.406     0.819
  6.360006      0.104     0.141     0.100    -0.413     0.819
  6.379994      0.099     0.135     0.095    -0.419     0.820
  6.400002      0.092     0.128     0.090    -0.422     0.821
  6.420005      0.086     0.120     0.084    -0.422     0.823
  6.439995      0.078     0.111     0.078    -0.421     0.825
  6.459995      0.066     0.097     0.068    -0.412     0.831
  6.480007      3.275     3.556     2.606     2.378     0.944
  6.500003      3.266     3.161     2.375     2.543     1.153
  6.519999      3.161     3.009     2.263     2.480     1.182
  6.540004      2.969     2.774     2.110     2.334     1.196
  6.560002      2.688     2.432     1.900     2.114     1.209
  6.580001      2.262     1.919     1.597     1.777     1.223
  6.600003      1.757     1.333     1.260     1.370     1.220
  6.620001      1.547     1.142     1.128     1.185     1.189
  6.640004      1.538     1.162     1.116     1.167     1.171
  6.660002      1.515     1.178     1.094     1.134     1.149
  6.680000      1.420     1.143     1.024     1.032     1.110
  6.700002      1.182     1.002     0.856     0.784     1.044
  6.720002      0.689     0.661     0.518     0.245     0.937
  6.739999      0.269     0.321     0.231    -0.240     0.869
  6.760000      0.233     0.282     0.204    -0.280     0.868
  6.780000      0.240     0.291     0.211    -0.278     0.869
  6.800002      0.248     0.299     0.218    -0.278     0.870
  6.819998      0.255     0.307     0.225    -0.280     0.871
  6.839999      0.262     0.315     0.231    -0.286     0.872
  6.860003      0.241     0.292     0.216    -0.313     0.873
  6.880002      0.247     0.299     0.222    -0.312     0.874
  6.900001      0.253     0.306     0.229    -0.312     0.876
  6.919998      0.260     0.314     0.236    -0.313     0.878
  6.939998      0.268     0.323     0.243    -0.315     0.880
  6.960000      0.276     0.332     0.252    -0.318     0.882
  6.979999      0.284     0.342     0.260    -0.325     0.884
  7.000000      0.292     0.351     0.268    -0.335     0.886
  7.019988      0.302     0.362     0.277    -0.348     0.888
  7.040009      0.298     0.359     0.276    -0.365     0.890
  7.060018      0.315     0.377     0.290    -0.360     0.892
  7.080013      0.332     0.396     0.305    -0.356     0.895
  7.099991      0.351     0.416     0.321    -0.352     0.898
  7.119981      0.371     0.437     0.338    -0.350     0.902
  7.140005      0.391     0.459     0.355    -0.350     0.905
  7.159988      0.421     0.491     0.380    -0.334     0.908
  7.180011      0.489     0.563     0.442    -0.281     0.912
  7.200002      0.542     0.619     0.493    -0.233     0.914
  7.220004      0.631     0.714     0.574    -0.147     0.917
  7.240000      0.744     0.834     0.676    -0.035     0.920
  7.260000      0.885     0.985     0.803     0.107     0.924
  7.280009      1.059     1.172     0.959     0.285     0.927
  7.300008      1.199     1.321     1.083     0.430     0.930
  7.320001      1.495     1.621     1.365     0.729     0.935
  7.340008      1.789     1.924     1.636     1.017     0.940
  7.360006      2.112     2.263     1.920     1.324     0.946
  7.379994      2.458     2.636     2.214     1.645     0.953
  7.400002      2.833     3.046     2.521     1.979     0.962
  7.420005      3.242     3.501     2.844     2.335     0.971
  7.439995      3.682     3.998     3.178     2.709     0.981
  7.462398      4.230     4.625     3.577     3.161     0.994
  7.477121      4.625     5.081     3.856     3.479     1.004
  7.491362      5.035     5.558     4.137     3.802     1.015
  7.505150      5.368     5.956     4.349     4.048     1.024
  7.518514      5.517     6.120     4.452     4.166     1.029
  7.531479      5.622     6.231     4.530     4.250     1.033
  7.544068      5.694     6.304     4.580     4.300     1.037
  7.556303      5.764     6.373     4.628     4.347     1.041
  7.568202      5.829     6.437     4.673     4.390     1.045
  7.579783      5.886     6.492     4.710     4.425     1.048
  7.591064      5.939     6.543     4.744     4.456     1.052
  7.602060      5.993     6.594     4.779     4.488     1.056
  7.628389      6.148     6.739     4.883     4.603     1.066
  7.653213      6.354     6.932     5.030     4.794     1.075
  7.676693      6.532     7.092     5.150     4.953     1.085
  7.698970      6.490     7.024     5.090     4.888     1.093
  7.720160      6.512     7.043     5.105     4.894     1.096
  7.740363      6.603     7.138     5.172     4.964     1.100
  7.756545      6.675     7.210     5.225     5.018     1.103
  7.806546      6.857     7.384     5.364     5.151     1.114
  7.856548      7.001     7.510     5.477     5.253     1.126
  7.906545      7.268     7.746     5.706     5.541     1.138
  7.956543      7.281     7.715     5.724     5.535     1.151
  8.006552      7.147     7.513     5.637     5.406     1.167
  8.056561      6.890     7.142     5.482     5.237     1.186
  8.106531      6.002     6.073     4.848     4.492     1.211
  8.156549      3.983     3.728     3.402     2.885     1.249
  8.206556      4.469     4.224     3.863     3.335     1.250
  8.256550      5.490     5.402     4.711     4.249     1.239
  8.306554      6.298     6.336     5.340     4.935     1.239
  8.356543      6.843     6.971     5.702     5.314     1.253
  8.406540      7.088     7.260     5.761     5.320     1.283
  8.456549      6.739     6.891     5.477     4.885     1.299
  8.506546      6.727     6.872     5.451     4.798     1.306
  8.556543      6.931     7.064     5.616     4.989     1.312
  8.606543      7.290     7.416     5.928     5.378     1.316
  8.656549      7.758     7.874     6.340     5.945     1.323
  8.706547      8.515     8.607     6.968     6.795     1.336
  8.756545      8.990     9.076     7.324     7.270     1.349
  8.806546      9.211     9.295     7.440     7.420     1.362
  8.856547      9.335     9.419     7.482     7.466     1.372
  8.906550      9.277     9.351     7.391     7.384     1.382
  8.956548      9.215     9.225     7.291     7.275     1.394
  9.006552      9.174     9.098     7.191     7.172     1.410
  9.056561      8.285     7.833     6.409     6.292     1.414
  9.106565      8.010     7.488     6.044     5.944     1.421
  9.156549      7.691     6.978     5.699     5.564     1.435
  9.206556      7.836     6.988     5.806     5.593     1.440
  9.225309      7.828     6.989     5.801     5.590     1.442
  9.230449      7.822     6.973     5.793     5.579     1.443
  9.255273      7.792     6.896     5.757     5.526     1.448
  9.278753      7.749     6.795     5.709     5.458     1.453
  9.301030      7.701     6.693     5.657     5.390     1.458
  9.322219      7.670     6.615     5.621     5.339     1.462
  9.342422      7.633     6.537     5.585     5.290     1.465
  9.361728      7.596     6.458     5.550     5.242     1.469
  9.380211      7.603     6.431     5.549     5.230     1.471
  9.397940      7.629     6.461     5.579     5.255     1.472
  9.414973      7.624     6.434     5.573     5.242     1.474
  9.439333      7.576     6.338     5.529     5.186     1.478
  9.477121      7.495     6.185     5.459     5.097     1.483
  9.511884      7.366     5.968     5.350     4.965     1.488
  9.544068      7.243     5.788     5.249     4.852     1.492
  9.574031      7.132     5.626     5.158     4.748     1.496
  9.602060      7.017     5.467     5.067     4.645     1.499
  9.628389      6.923     5.332     4.995     4.560     1.501
  9.653213      6.861     5.262     4.956     4.516     1.502
  9.676694      6.759     5.136     4.879     4.432     1.504
  9.698970      6.660     5.014     4.804     4.352     1.505
  9.720160      6.559     4.892     4.730     4.271     1.505
  9.740363      6.454     4.769     4.654     4.189     1.504
  9.759667      6.352     4.652     4.582     4.111     1.503
  9.778152      6.269     4.558     4.525     4.049     1.502
  9.795880      6.234     4.521     4.512     4.025     1.501
  9.812913      6.210     4.482     4.501     4.000     1.501
  9.829304      6.186     4.446     4.490     3.976     1.502
  9.845098      6.161     4.412     4.478     3.952     1.502
  9.860338      6.134     4.381     4.464     3.927     1.502
  9.875061      6.108     4.353     4.451     3.905     1.502
  9.889301      6.085     4.328     4.439     3.884     1.502
  9.903090      6.064     4.307     4.430     3.865     1.502
  9.916454      6.048     4.296     4.423     3.850     1.502
  9.929419      6.040     4.296     4.421     3.842     1.503
  9.942008      6.043     4.306     4.427     3.842     1.503
  9.954243      5.989     4.279     4.401     3.816     1.501
  9.966142      5.932     4.228     4.365     3.778     1.501
  9.977724      5.875     4.178     4.330     3.739     1.500
  9.989004      5.821     4.128     4.296     3.703     1.499
 10.000000      5.768     4.078     4.263     3.667     1.499
 10.010724      5.717     4.029     4.231     3.632     1.498
 10.021190      5.668     3.980     4.202     3.598     1.497
 10.031408      5.622     3.932     4.174     3.566     1.497
 10.041392      5.578     3.884     4.148     3.535     1.496
 10.051152      5.538     3.837     4.124     3.506     1.495
 10.060698      5.500     3.794     4.102     3.479     1.495
 10.070038      5.466     3.755     4.082     3.454     1.494
 10.079182      5.436     3.723     4.064     3.432     1.493
 10.088136      5.410     3.696     4.048     3.413     1.493
 10.096910      5.388     3.676     4.036     3.396     1.492
 10.105510      5.373     3.659     4.027     3.383     1.491
 10.113943      5.362     3.644     4.022     3.373     1.490
 10.122216      5.355     3.632     4.020     3.366     1.490
 10.130334      5.351     3.623     4.020     3.361     1.489
 10.138303      5.331     3.598     4.010     3.345     1.489
 10.146128      5.303     3.552     3.989     3.317     1.488
 10.153815      5.274     3.505     3.969     3.289     1.488
 10.161368      5.246     3.460     3.948     3.261     1.487
 10.168792      5.218     3.414     3.928     3.233     1.487
 10.176091      5.189     3.370     3.908     3.206     1.486
 10.183270      5.161     3.325     3.888     3.178     1.485
 10.190331      5.133     3.281     3.868     3.151     1.485
 10.197281      5.105     3.238     3.848     3.124     1.485
 10.204120      5.078     3.195     3.828     3.098     1.484
 10.210854      5.050     3.152     3.808     3.071     1.484
 10.217484      5.023     3.110     3.789     3.045     1.483
 10.224015      4.995     3.069     3.770     3.019     1.483
 10.230449      4.968     3.029     3.751     2.994     1.482
 10.236789      4.942     2.990     3.732     2.968     1.482
 10.243038      4.915     2.951     3.713     2.944     1.482
 10.249198      4.889     2.913     3.695     2.919     1.481
 10.255273      4.863     2.876     3.676     2.895     1.481
 10.261263      4.837     2.840     3.658     2.871     1.481
 10.267172      4.812     2.805     3.641     2.848     1.481
 10.273002      4.787     2.771     3.623     2.826     1.481
 10.278753      4.762     2.739     3.606     2.804     1.480
 10.284431      4.738     2.707     3.590     2.782     1.480
 10.290034      4.714     2.676     3.573     2.761     1.480
 10.295568      4.691     2.644     3.558     2.740     1.480
 10.301030      4.668     2.613     3.543     2.720     1.480
