#                                                     Thu Jun  9 00:58:35 2016
#          I------------------------------------------------------------------------------------------------------------------------I
#          I                                                                                                                        I
#          I      BC_GALAXEV  ---  MODEL PARAMETERS:   Generic file name for this model = bc2003_hr_xmiless_m42_kroup_ssp           I
#          I                                                                                                                        I
#          I      TRACKS: Padova (1994) + S. Charlot (1997). X=0.756, Y=0.24, Z=0.004                                               I
#          I                                                                                                                        I
#          I      S.F.R.: SSP = Zero Length Burst at t = 0                                                                          I
#          I                                                                                                                        I
#          I                                                                                                                        I
#          I      I.M.F.: Power law ( 2 segments):                                                                                  I
#          I                                                                      mass in      number                               I
#          I                                              x   from m     to m     segment    of stars      c                        I
#          I                                           0.30     0.10     0.50      0.2668      1.1434  4.4891E-01                   I
#          I                                           1.30     0.50   100.00      0.7332      0.4247  2.2446E-01                   I
#          I                                                                                                                        I
#          I                                                           totals      1.0000      1.5681  0.6377 Mo/star               I
#          I                                                                                                                        I
#          I                                                                                                                        I
#          I                                                                                                                        I
#          I                                                                                                                        I
#          I      LISTED: Rest frame properties                                                                                     I
#          I                                                                                                                        I
#          I                                                                                                                        I
#          I                              (C) 1995-2015 G. Bruzual A. & S. Charlot - All Rights Reserved                            I
#          I------------------------------------------------------------------------------------------------------------------------I
#
#    (1)       (2)     (3)     (4)     (5)     (6)     (7)      (8)       (9)       (10)     (11)     (12)     (13)     (14)    (15)
#
# Index_No.   WO-1:   WO-2:   WO-3:   WO-4:   GC-1:   4000A   DTT-Ca1   DTT-Ca2   DTT-Ca3  DTT-MgI    DM-04    DM-04    DM-04     BH:
# log-age   HdeltaA HgammaA HdeltaF HgammaF D(4000)   B4_VN  CaII8498  CaII8542  CaII8662  MgI8807  H8_3889  H9_3835 H10_3798   BH-HK
#   (yr)       (A)     (A)     (A)     (A)      .       .        (A)       (A)       (A)      (A)      (A)      (A)      (A)      (A)
  5.000000    2.650   4.564   2.847   3.453   0.940   0.969     0.338     0.400     0.542    7.506    2.675    2.261    1.760   0.044
  5.149989    2.650   4.564   2.847   3.453   0.940   0.969     0.338     0.400     0.542    7.506    2.675    2.261    1.760   0.044
  5.200002    2.650   4.564   2.847   3.453   0.940   0.969     0.338     0.400     0.542    7.506    2.675    2.261    1.760   0.044
  5.250005    2.650   4.564   2.847   3.453   0.940   0.969     0.338     0.400     0.542    7.506    2.675    2.261    1.760   0.044
  5.300008    2.650   4.564   2.847   3.453   0.940   0.969     0.338     0.400     0.542    7.506    2.675    2.261    1.760   0.044
  5.349996    2.650   4.564   2.847   3.453   0.940   0.969     0.338     0.400     0.542    7.506    2.675    2.261    1.760   0.044
  5.400002    2.650   4.564   2.847   3.453   0.940   0.969     0.338     0.400     0.542    7.506    2.675    2.261    1.760   0.044
  5.450003    2.650   4.564   2.847   3.453   0.940   0.969     0.338     0.400     0.542    7.506    2.675    2.261    1.760   0.044
  5.500003    2.650   4.564   2.847   3.453   0.940   0.969     0.338     0.400     0.542    7.506    2.675    2.261    1.760   0.044
  5.550008    2.650   4.564   2.847   3.453   0.940   0.969     0.338     0.400     0.542    7.506    2.675    2.261    1.760   0.044
  5.600003    2.650   4.564   2.847   3.453   0.940   0.969     0.338     0.400     0.542    7.506    2.675    2.261    1.760   0.044
  5.650006    2.650   4.564   2.847   3.453   0.940   0.969     0.338     0.400     0.542    7.506    2.675    2.261    1.760   0.044
  5.700002    2.650   4.564   2.847   3.453   0.940   0.969     0.338     0.400     0.542    7.506    2.675    2.261    1.760   0.044
  5.749999    2.650   4.564   2.847   3.453   0.940   0.969     0.338     0.400     0.542    7.506    2.675    2.261    1.760   0.044
  5.800002    2.650   4.564   2.847   3.453   0.940   0.969     0.338     0.400     0.542    7.506    2.675    2.261    1.760   0.044
  5.850003    2.650   4.564   2.847   3.453   0.940   0.969     0.338     0.400     0.542    7.506    2.675    2.261    1.760   0.044
  5.900001    2.650   4.564   2.847   3.453   0.940   0.969     0.338     0.400     0.542    7.506    2.675    2.261    1.760   0.044
  5.950005    2.650   4.564   2.847   3.453   0.940   0.969     0.338     0.400     0.542    7.506    2.675    2.261    1.760   0.044
  6.000000    2.650   4.564   2.847   3.453   0.940   0.969     0.338     0.400     0.542    7.506    2.675    2.261    1.760   0.044
  6.019988    2.650   4.564   2.847   3.453   0.940   0.969     0.338     0.400     0.542    7.506    2.675    2.261    1.760   0.044
  6.040009    2.650   4.564   2.847   3.453   0.940   0.969     0.338     0.400     0.542    7.506    2.675    2.261    1.760   0.044
  6.060018    2.650   4.564   2.847   3.453   0.940   0.969     0.338     0.400     0.542    7.506    2.675    2.261    1.760   0.044
  6.080013    2.650   4.564   2.847   3.453   0.940   0.969     0.338     0.400     0.542    7.506    2.675    2.261    1.760   0.044
  6.099991    2.650   4.564   2.847   3.453   0.940   0.969     0.338     0.400     0.542    7.506    2.675    2.261    1.760   0.044
  6.120014    2.650   4.564   2.847   3.453   0.940   0.969     0.338     0.400     0.542    7.506    2.675    2.261    1.760   0.044
  6.140005    2.650   4.564   2.847   3.453   0.940   0.969     0.338     0.400     0.542    7.506    2.675    2.261    1.760   0.044
  6.159988    2.650   4.564   2.847   3.453   0.940   0.969     0.338     0.400     0.542    7.506    2.675    2.261    1.760   0.044
  6.180011    2.650   4.564   2.847   3.453   0.940   0.969     0.338     0.400     0.542    7.506    2.675    2.261    1.760   0.044
  6.200002    2.650   4.564   2.847   3.453   0.940   0.969     0.338     0.400     0.542    7.506    2.675    2.261    1.760   0.044
  6.220004    2.650   4.564   2.847   3.453   0.940   0.969     0.338     0.400     0.542    7.506    2.675    2.261    1.760   0.044
  6.240000    2.650   4.564   2.847   3.453   0.940   0.969     0.338     0.400     0.542    7.506    2.675    2.261    1.760   0.044
  6.260000    2.650   4.564   2.847   3.453   0.940   0.969     0.338     0.400     0.542    7.506    2.675    2.261    1.760   0.044
  6.280009    2.650   4.564   2.847   3.453   0.940   0.969     0.338     0.400     0.542    7.506    2.675    2.261    1.760   0.044
  6.300008    2.650   4.564   2.847   3.453   0.940   0.969     0.338     0.400     0.542    7.506    2.675    2.261    1.760   0.044
  6.320001    2.650   4.564   2.847   3.453   0.940   0.969     0.338     0.400     0.542    7.506    2.675    2.261    1.760   0.044
  6.340008    2.650   4.564   2.847   3.453   0.940   0.969     0.338     0.400     0.542    7.506    2.675    2.261    1.760   0.044
  6.360006    2.650   4.564   2.847   3.453   0.940   0.969     0.338     0.400     0.542    7.506    2.675    2.261    1.760   0.044
  6.379994    2.650   4.564   2.847   3.453   0.940   0.969     0.338     0.400     0.542    7.506    2.675    2.261    1.760   0.044
  6.400002    2.122   3.992   2.439   3.027   0.936   0.966     0.465     0.500     0.533    7.509    2.182    1.847    1.557   0.035
  6.420005    2.249   4.115   2.540   3.135   0.946   0.972     0.708     0.813     0.784    7.512    2.314    1.974    1.636   0.038
  6.439995    2.470   4.294   2.736   3.328   0.969   0.986     1.160     1.392     1.233    7.517    2.573    2.223    1.797   0.046
  6.459995    2.944   4.752   3.086   3.685   1.001   1.005     1.502     1.827     1.632    7.519    3.016    2.628    2.048   0.058
  6.480007    3.466   5.266   3.451   4.052   1.034   1.023     1.632     1.986     1.900    7.516    3.475    3.041    2.303   0.068
  6.500003    4.280   6.076   4.023   4.618   1.077   1.045     1.724     2.098     2.173    7.511    4.191    3.680    2.720   0.082
  6.519999    4.411   6.185   4.146   4.718   1.082   1.046     1.688     2.065     2.232    7.509    4.337    3.825    2.838   0.085
  6.540004    4.245   6.105   4.068   4.666   1.072   1.039     1.614     1.983     2.215    7.508    4.238    3.798    2.840   0.083
  6.560002    3.917   5.768   3.835   4.426   1.054   1.030     1.467     1.793     2.038    7.507    3.947    3.535    2.667   0.077
  6.580001    3.263   5.185   3.411   4.020   1.016   1.008     1.114     1.439     1.968    7.508    3.451    3.116    2.450   0.064
  6.600003    4.662   6.499   4.457   5.029   1.066   1.029     1.234     1.541     2.267    7.492    4.663    4.113    3.186   0.084
  6.620001    5.465   7.237   5.061   5.605   1.097   1.044     1.356     1.662     2.374    7.486    5.358    4.716    3.623   0.097
  6.640004    5.351   7.124   4.958   5.499   1.095   1.045     1.417     1.730     2.360    7.486    5.221    4.621    3.514   0.097
  6.660002    4.602   6.423   4.426   4.983   1.058   1.026     1.287     1.583     2.191    7.486    4.558    4.060    3.132   0.083
  6.680000    3.831   5.699   3.887   4.449   1.017   1.004     1.013     1.256     1.948    7.484    3.886    3.498    2.764   0.069
  6.700002    3.069   4.955   3.311   3.866   0.994   0.994     0.924     1.182     1.766    7.494    3.248    2.983    2.372   0.059
  6.720002    2.627   4.512   2.972   3.512   0.983   0.989     0.839     1.100     1.636    7.503    2.892    2.690    2.153   0.053
  6.739999    3.429   5.301   3.582   4.129   1.005   0.999     0.924     1.182     1.844    7.496    3.572    3.255    2.575   0.064
  6.760000    4.144   5.990   4.123   4.665   1.029   1.010     1.016     1.322     2.050    7.495    4.195    3.774    2.960   0.075
  6.780000    4.696   6.506   4.531   5.059   1.051   1.020     1.098     1.461     2.201    7.497    4.685    4.180    3.258   0.084
  6.800002    5.106   6.881   4.822   5.333   1.071   1.030     1.177     1.607     2.315    7.503    5.059    4.488    3.475   0.091
  6.819998    5.194   6.922   4.843   5.325   1.088   1.042     1.290     1.844     2.395    7.517    5.155    4.574    3.480   0.096
  6.839999    4.959   6.673   4.693   5.160   1.081   1.039     1.232     1.848     2.396    7.525    4.993    4.452    3.398   0.093
  6.860003    4.879   6.564   4.652   5.100   1.083   1.041     1.203     1.895     2.439    7.533    4.971    4.450    3.395   0.094
  6.880002    4.804   6.462   4.615   5.046   1.084   1.043     1.177     1.943     2.480    7.541    4.953    4.453    3.396   0.095
  6.900001    4.729   6.366   4.580   4.996   1.085   1.044     1.153     1.991     2.516    7.550    4.934    4.455    3.397   0.095
  6.919998    4.661   6.277   4.549   4.951   1.085   1.045     1.132     2.041     2.548    7.558    4.917    4.455    3.398   0.095
  6.939998    4.604   6.199   4.525   4.912   1.084   1.045     1.116     2.093     2.575    7.566    4.902    4.451    3.399   0.095
  6.960000    4.565   6.145   4.514   4.888   1.082   1.044     1.105     2.150     2.598    7.575    4.893    4.448    3.405   0.095
  6.979999    4.547   6.125   4.517   4.885   1.078   1.041     1.101     2.211     2.614    7.584    4.887    4.440    3.412   0.094
  7.000000    4.571   6.198   4.539   4.928   1.068   1.035     1.099     2.227     2.587    7.587    4.868    4.413    3.409   0.091
  7.019988    4.466   6.165   4.454   4.876   1.054   1.027     1.091     2.211     2.528    7.586    4.728    4.292    3.323   0.086
  7.040009    4.454   6.178   4.447   4.881   1.052   1.025     1.066     2.154     2.497    7.582    4.718    4.285    3.323   0.086
  7.060018    4.431   6.175   4.430   4.872   1.050   1.023     1.042     2.102     2.468    7.579    4.696    4.267    3.316   0.085
  7.080013    4.394   6.159   4.403   4.853   1.046   1.021     1.016     2.047     2.434    7.575    4.662    4.238    3.299   0.084
  7.099991    4.335   6.126   4.359   4.817   1.042   1.019     0.988     1.991     2.394    7.571    4.607    4.192    3.269   0.082
  7.119981    4.252   6.071   4.296   4.762   1.037   1.016     0.954     1.930     2.355    7.566    4.528    4.127    3.224   0.080
  7.140005    4.130   5.985   4.203   4.678   1.030   1.013     0.923     1.873     2.299    7.561    4.414    4.033    3.155   0.078
  7.159988    3.959   5.868   4.069   4.562   1.021   1.008     0.879     1.780     2.205    7.553    4.249    3.899    3.054   0.074
  7.180011    3.858   5.793   3.990   4.486   1.015   1.005     0.855     1.759     2.155    7.550    4.152    3.820    2.989   0.072
  7.200002    4.007   5.911   4.104   4.585   1.021   1.008     0.876     1.818     2.207    7.554    4.288    3.926    3.068   0.075
  7.220004    4.180   6.044   4.235   4.697   1.029   1.012     0.905     1.889     2.270    7.559    4.448    4.053    3.161   0.078
  7.240000    4.359   6.183   4.370   4.814   1.037   1.016     0.931     1.955     2.328    7.563    4.612    4.183    3.258   0.081
  7.260000    4.546   6.331   4.510   4.935   1.045   1.020     0.958     2.015     2.378    7.566    4.781    4.319    3.357   0.084
  7.280009    4.743   6.489   4.655   5.063   1.053   1.024     0.986     2.072     2.415    7.569    4.955    4.458    3.458   0.088
  7.300008    4.948   6.659   4.806   5.198   1.062   1.027     1.014     2.124     2.446    7.572    5.132    4.600    3.561   0.091
  7.320001    5.136   6.844   4.940   5.334   1.066   1.029     1.022     2.112     2.433    7.568    5.278    4.717    3.644   0.094
  7.340008    5.160   6.831   4.954   5.323   1.073   1.033     1.043     2.173     2.470    7.568    5.319    4.758    3.653   0.096
  7.360006    5.190   6.821   4.973   5.318   1.081   1.039     1.067     2.230     2.511    7.568    5.371    4.807    3.672   0.098
  7.379994    5.223   6.815   4.995   5.314   1.089   1.044     1.089     2.283     2.547    7.569    5.426    4.859    3.690   0.101
  7.400002    5.260   6.812   5.019   5.312   1.097   1.049     1.110     2.334     2.580    7.569    5.484    4.913    3.710   0.103
  7.420005    5.298   6.812   5.045   5.313   1.105   1.054     1.130     2.381     2.612    7.569    5.542    4.967    3.731   0.106
  7.439995    5.339   6.816   5.073   5.317   1.112   1.059     1.148     2.426     2.642    7.569    5.602    5.023    3.753   0.108
  7.462398    5.389   6.828   5.108   5.326   1.121   1.064     1.168     2.473     2.671    7.569    5.671    5.086    3.778   0.111
  7.477121    5.425   6.840   5.133   5.334   1.126   1.068     1.179     2.502     2.688    7.569    5.717    5.128    3.795   0.112
  7.491362    5.460   6.855   5.158   5.344   1.131   1.071     1.190     2.528     2.705    7.568    5.760    5.166    3.811   0.114
  7.505150    5.493   6.871   5.181   5.355   1.135   1.073     1.198     2.552     2.720    7.568    5.798    5.201    3.826   0.115
  7.518514    5.522   6.886   5.202   5.365   1.139   1.075     1.206     2.573     2.733    7.568    5.830    5.230    3.838   0.116
  7.531479    5.563   6.936   5.229   5.395   1.139   1.076     1.210     2.573     2.733    7.565    5.855    5.251    3.848   0.117
  7.544068    5.559   6.931   5.228   5.388   1.139   1.076     1.197     2.574     2.744    7.565    5.853    5.248    3.845   0.117
  7.556303    5.623   7.000   5.271   5.434   1.141   1.076     1.193     2.561     2.749    7.562    5.900    5.287    3.871   0.117
  7.568202    5.678   7.054   5.308   5.471   1.144   1.078     1.189     2.554     2.760    7.561    5.946    5.325    3.895   0.118
  7.579783    5.735   7.109   5.346   5.508   1.146   1.079     1.186     2.547     2.771    7.559    5.991    5.363    3.920   0.119
  7.591064    5.792   7.165   5.384   5.546   1.149   1.080     1.181     2.538     2.784    7.557    6.037    5.401    3.944   0.120
  7.602060    5.850   7.222   5.422   5.585   1.152   1.081     1.176     2.529     2.797    7.555    6.082    5.438    3.969   0.121
  7.628389    5.998   7.371   5.520   5.684   1.157   1.083     1.160     2.504     2.831    7.551    6.196    5.531    4.030   0.123
  7.653213    6.149   7.526   5.620   5.785   1.162   1.085     1.141     2.472     2.867    7.545    6.309    5.621    4.091   0.126
  7.676693    6.304   7.689   5.720   5.891   1.167   1.087     1.117     2.434     2.902    7.539    6.421    5.709    4.150   0.127
  7.698970    6.459   7.857   5.820   5.997   1.170   1.088     1.089     2.388     2.932    7.531    6.526    5.791    4.207   0.129
  7.720160    6.612   8.029   5.919   6.105   1.173   1.088     1.057     2.336     2.957    7.523    6.627    5.868    4.261   0.131
  7.740363    6.779   8.232   6.024   6.230   1.173   1.087     1.023     2.267     2.960    7.512    6.721    5.933    4.311   0.131
  7.756545    6.813   8.267   6.047   6.252   1.174   1.087     0.993     2.237     2.969    7.510    6.747    5.953    4.327   0.132
  7.806546    6.985   8.423   6.160   6.356   1.183   1.092     0.939     2.177     2.984    7.503    6.894    6.075    4.406   0.135
  7.856548    7.163   8.607   6.275   6.475   1.190   1.095     0.872     2.088     2.986    7.493    7.030    6.185    4.481   0.138
  7.906545    7.311   8.743   6.370   6.565   1.199   1.099     0.842     2.049     2.968    7.487    7.153    6.287    4.549   0.141
  7.956543    7.463   8.870   6.463   6.651   1.211   1.105     0.843     2.042     2.939    7.480    7.286    6.403    4.621   0.144
  8.006552    7.611   9.000   6.550   6.741   1.221   1.110     0.840     2.022     2.894    7.470    7.410    6.503    4.689   0.147
  8.056561    7.657   9.013   6.572   6.761   1.229   1.114     0.729     1.777     2.275    7.474    7.463    6.547    4.729   0.148
  8.106531    7.707   9.017   6.594   6.780   1.244   1.122     0.793     1.842     2.296    7.471    7.547    6.630    4.786   0.151
  8.156549    7.774   9.042   6.642   6.826   1.257   1.128     0.853     1.900     2.303    7.465    7.656    6.720    4.857   0.153
  8.206556    7.726   8.957   6.631   6.813   1.266   1.134     0.908     1.955     2.305    7.458    7.682    6.765    4.899   0.155
  8.256550    7.708   8.907   6.649   6.828   1.273   1.138     0.957     2.018     2.319    7.453    7.727    6.821    4.955   0.157
  8.306554    7.704   8.801   6.601   6.730   1.292   1.151     0.888     2.013     2.362    7.471    7.773    6.886    4.928   0.163
  8.356543    7.673   8.646   6.543   6.607   1.314   1.166     0.821     2.004     2.367    7.490    7.803    6.965    4.903   0.170
  8.406540    7.786   8.649   6.582   6.584   1.338   1.181     0.758     1.978     2.351    7.505    7.922    7.127    4.934   0.177
  8.456549    7.811   8.598   6.566   6.522   1.357   1.194     0.691     1.928     2.311    7.513    7.970    7.225    4.921   0.183
  8.506546    7.982   8.732   6.651   6.582   1.370   1.201     0.620     1.843     2.244    7.514    8.096    7.362    4.957   0.188
  8.556543    8.155   8.923   6.723   6.666   1.386   1.209     0.594     1.803     2.211    7.508    8.199    7.506    4.989   0.190
  8.606543    8.148   8.874   6.671   6.587   1.410   1.224     0.605     1.859     2.282    7.508    8.244    7.594    4.951   0.194
  8.656549    7.982   8.635   6.542   6.416   1.432   1.238     0.608     1.903     2.326    7.519    8.217    7.640    4.883   0.198
  8.706547    7.759   8.371   6.395   6.247   1.442   1.246     0.600     1.916     2.354    7.528    8.089    7.627    4.795   0.199
  8.756545    7.445   7.994   6.172   5.991   1.459   1.259     0.608     1.966     2.431    7.541    7.888    7.584    4.669   0.200
  8.806546    7.102   7.562   5.908   5.688   1.481   1.278     0.624     2.029     2.524    7.556    7.645    7.520    4.521   0.200
  8.856547    6.725   7.117   5.522   5.290   1.508   1.302     0.645     2.091     2.598    7.566    7.206    7.316    4.239   0.196
  8.906550    6.293   6.603   5.212   4.944   1.524   1.319     0.658     2.122     2.634    7.580    6.878    7.170    4.059   0.196
  8.956548    5.743   6.022   4.907   4.622   1.518   1.321     0.651     2.106     2.625    7.593    6.586    6.973    3.901   0.195
  9.006552    4.722   4.963   4.349   4.046   1.508   1.325     0.652     2.111     2.639    7.612    6.078    6.601    3.630   0.194
  9.056561    3.345   3.346   3.638   3.202   1.537   1.362     0.728     2.274     2.790    7.640    5.613    6.217    3.406   0.200
  9.106565    1.973   1.573   3.013   2.318   1.628   1.445     0.800     2.368     2.807    7.753    5.379    6.044    3.364   0.214
  9.156549    2.652   2.507   3.639   3.082   1.573   1.390     0.796     2.355     2.748    7.664    5.869    6.313    3.857   0.204
  9.206556    2.445   2.243   3.566   3.003   1.575   1.393     0.818     2.411     2.799    7.649    5.779    6.292    3.855   0.207
  9.225309    2.314   2.077   3.457   2.884   1.582   1.400     0.826     2.427     2.810    7.652    5.674    6.223    3.769   0.209
  9.230449    2.275   2.028   3.424   2.848   1.584   1.403     0.828     2.432     2.814    7.653    5.643    6.203    3.743   0.210
  9.255273    2.105   1.852   3.172   2.612   1.594   1.413     0.840     2.456     2.830    7.657    5.341    5.928    3.445   0.214
  9.278753    1.944   1.675   2.963   2.408   1.602   1.422     0.853     2.481     2.850    7.661    5.094    5.712    3.207   0.216
  9.301030    1.787   1.513   2.747   2.224   1.608   1.429     0.852     2.476     2.838    7.664    4.839    5.490    2.958   0.220
  9.322219    1.583   1.277   2.483   2.001   1.619   1.442     0.849     2.470     2.825    7.667    4.530    5.230    2.680   0.225
  9.342422    1.372   1.017   2.336   1.842   1.624   1.450     0.852     2.476     2.830    7.667    4.366    5.150    2.581   0.226
  9.361728    1.230   0.826   2.265   1.744   1.628   1.456     0.851     2.476     2.824    7.668    4.305    5.152    2.564   0.227
  9.380211    1.155   0.702   2.247   1.690   1.633   1.461     0.854     2.484     2.827    7.668    4.315    5.197    2.596   0.228
  9.397940    1.064   0.554   2.197   1.602   1.643   1.470     0.860     2.498     2.837    7.669    4.302    5.214    2.592   0.230
  9.414973    0.753   0.153   1.964   1.329   1.662   1.491     0.868     2.517     2.843    7.673    4.075    5.090    2.421   0.235
  9.439333    0.453  -0.243   1.782   1.083   1.683   1.514     0.870     2.524     2.830    7.677    3.927    5.062    2.314   0.240
  9.477121    0.230  -0.516   1.640   0.912   1.696   1.529     0.875     2.535     2.830    7.679    3.792    5.022    2.216   0.243
  9.511884    0.253  -0.463   1.632   0.940   1.682   1.519     0.848     2.475     2.756    7.680    3.727    4.991    2.167   0.243
  9.544068    0.163  -0.572   1.567   0.873   1.682   1.521     0.838     2.453     2.712    7.675    3.634    4.927    2.104   0.243
  9.574031    0.023  -0.761   1.486   0.764   1.689   1.528     0.831     2.439     2.678    7.676    3.544    4.861    2.050   0.244
  9.602060   -0.132  -0.966   1.398   0.645   1.696   1.536     0.830     2.442     2.673    7.676    3.443    4.789    1.991   0.243
  9.628389   -0.279  -1.160   1.314   0.532   1.701   1.542     0.837     2.462     2.699    7.678    3.343    4.723    1.936   0.243
  9.653213   -0.413  -1.336   1.239   0.424   1.707   1.548     0.835     2.463     2.691    7.677    3.252    4.683    1.884   0.244
  9.676694   -0.540  -1.511   1.167   0.317   1.715   1.556     0.833     2.461     2.674    7.676    3.175    4.661    1.840   0.244
  9.698970   -0.636  -1.649   1.113   0.232   1.721   1.562     0.831     2.458     2.658    7.675    3.118    4.661    1.812   0.245
  9.720160   -0.709  -1.758   1.070   0.165   1.726   1.568     0.829     2.456     2.643    7.673    3.077    4.669    1.792   0.246
  9.740363   -0.767  -1.845   1.037   0.111   1.731   1.572     0.827     2.453     2.628    7.672    3.045    4.681    1.779   0.246
  9.759667   -0.830  -1.938   1.000   0.053   1.736   1.577     0.825     2.450     2.613    7.670    3.013    4.694    1.763   0.247
  9.778152   -0.915  -2.057   0.951  -0.020   1.744   1.585     0.826     2.453     2.604    7.668    2.976    4.698    1.746   0.249
  9.795880   -0.993  -2.162   0.907  -0.086   1.751   1.591     0.825     2.449     2.585    7.667    2.945    4.702    1.726   0.250
  9.812913   -1.066  -2.256   0.866  -0.146   1.757   1.597     0.823     2.445     2.568    7.666    2.917    4.705    1.706   0.251
  9.829304   -1.134  -2.339   0.829  -0.199   1.763   1.602     0.821     2.441     2.552    7.665    2.896    4.706    1.688   0.253
  9.845098   -1.193  -2.409   0.795  -0.245   1.768   1.607     0.819     2.438     2.538    7.664    2.886    4.706    1.675   0.254
  9.860338   -1.247  -2.471   0.765  -0.286   1.772   1.611     0.818     2.435     2.527    7.664    2.878    4.707    1.661   0.255
  9.875061   -1.293  -2.527   0.741  -0.323   1.777   1.616     0.817     2.433     2.516    7.663    2.869    4.713    1.649   0.256
  9.889301   -1.338  -2.578   0.718  -0.358   1.781   1.620     0.816     2.431     2.507    7.662    2.863    4.719    1.636   0.257
  9.903090   -1.380  -2.625   0.697  -0.390   1.785   1.624     0.815     2.429     2.500    7.661    2.858    4.724    1.625   0.258
  9.916454   -1.418  -2.668   0.677  -0.420   1.789   1.627     0.814     2.428     2.493    7.660    2.853    4.732    1.613   0.259
  9.929419   -1.443  -2.691   0.665  -0.438   1.790   1.628     0.812     2.424     2.486    7.659    2.849    4.744    1.603   0.259
  9.942008   -1.480  -2.731   0.648  -0.461   1.794   1.632     0.811     2.425     2.484    7.659    2.841    4.757    1.593   0.260
  9.954243   -1.520  -2.776   0.629  -0.488   1.799   1.637     0.811     2.424     2.478    7.659    2.830    4.769    1.582   0.261
  9.966142   -1.560  -2.821   0.610  -0.515   1.803   1.642     0.810     2.423     2.473    7.659    2.817    4.782    1.571   0.262
  9.977724   -1.599  -2.866   0.592  -0.541   1.808   1.646     0.809     2.422     2.468    7.660    2.802    4.795    1.559   0.263
  9.989004   -1.636  -2.909   0.574  -0.567   1.813   1.651     0.808     2.422     2.464    7.660    2.783    4.809    1.546   0.264
 10.000000   -1.671  -2.951   0.558  -0.592   1.818   1.656     0.808     2.422     2.461    7.660    2.763    4.824    1.534   0.265
 10.010724   -1.705  -2.991   0.543  -0.616   1.823   1.660     0.807     2.422     2.458    7.661    2.741    4.839    1.520   0.266
 10.021190   -1.736  -3.028   0.529  -0.638   1.827   1.665     0.807     2.422     2.455    7.661    2.714    4.856    1.507   0.267
 10.031408   -1.766  -3.063   0.516  -0.660   1.832   1.669     0.807     2.422     2.453    7.661    2.687    4.872    1.493   0.267
 10.041392   -1.796  -3.097   0.503  -0.681   1.836   1.673     0.806     2.423     2.451    7.662    2.661    4.887    1.480   0.268
 10.051152   -1.825  -3.129   0.490  -0.700   1.840   1.677     0.806     2.424     2.449    7.662    2.637    4.901    1.468   0.268
 10.060698   -1.851  -3.159   0.479  -0.718   1.844   1.681     0.806     2.424     2.449    7.662    2.615    4.916    1.457   0.269
 10.070038   -1.874  -3.188   0.469  -0.735   1.847   1.684     0.806     2.426     2.449    7.663    2.596    4.929    1.448   0.270
 10.079182   -1.896  -3.215   0.460  -0.752   1.851   1.687     0.806     2.427     2.449    7.663    2.576    4.943    1.438   0.270
 10.088136   -1.918  -3.242   0.452  -0.768   1.854   1.691     0.807     2.429     2.450    7.663    2.556    4.956    1.429   0.270
 10.096910   -1.940  -3.269   0.442  -0.784   1.857   1.694     0.808     2.432     2.453    7.664    2.535    4.969    1.419   0.271
 10.105510   -1.946  -3.276   0.442  -0.789   1.858   1.695     0.807     2.431     2.450    7.664    2.521    4.976    1.416   0.271
 10.113943   -1.940  -3.268   0.448  -0.786   1.858   1.695     0.805     2.427     2.444    7.664    2.513    4.979    1.416   0.271
 10.122216   -1.935  -3.260   0.453  -0.782   1.858   1.694     0.804     2.424     2.439    7.664    2.505    4.982    1.416   0.271
 10.130334   -1.928  -3.251   0.459  -0.778   1.857   1.694     0.803     2.421     2.433    7.664    2.497    4.984    1.417   0.271
 10.138303   -1.922  -3.241   0.465  -0.774   1.856   1.693     0.801     2.418     2.428    7.664    2.490    4.987    1.418   0.271
 10.146128   -1.915  -3.231   0.471  -0.769   1.856   1.692     0.800     2.414     2.423    7.664    2.484    4.988    1.419   0.270
 10.153815   -1.907  -3.220   0.478  -0.764   1.855   1.691     0.799     2.412     2.418    7.665    2.479    4.990    1.421   0.270
 10.161368   -1.899  -3.209   0.485  -0.758   1.854   1.691     0.797     2.409     2.414    7.665    2.475    4.991    1.423   0.270
 10.168792   -1.890  -3.197   0.491  -0.752   1.853   1.690     0.796     2.406     2.409    7.665    2.472    4.992    1.425   0.270
 10.176091   -1.880  -3.185   0.499  -0.745   1.852   1.689     0.795     2.404     2.405    7.665    2.470    4.992    1.428   0.269
 10.183270   -1.870  -3.172   0.506  -0.739   1.851   1.688     0.794     2.401     2.401    7.665    2.468    4.992    1.431   0.269
 10.190331   -1.860  -3.159   0.514  -0.731   1.850   1.686     0.793     2.399     2.397    7.665    2.467    4.992    1.434   0.269
 10.197281   -1.849  -3.145   0.522  -0.724   1.849   1.685     0.793     2.397     2.394    7.665    2.467    4.993    1.438   0.269
 10.204120   -1.837  -3.130   0.530  -0.716   1.848   1.684     0.792     2.395     2.391    7.665    2.467    4.993    1.442   0.268
 10.210854   -1.826  -3.115   0.539  -0.707   1.846   1.682     0.791     2.393     2.388    7.665    2.468    4.993    1.446   0.268
 10.217484   -1.814  -3.100   0.548  -0.698   1.845   1.681     0.790     2.391     2.385    7.666    2.471    4.993    1.451   0.267
 10.224015   -1.801  -3.083   0.557  -0.689   1.844   1.679     0.790     2.389     2.382    7.666    2.475    4.993    1.457   0.267
 10.230449   -1.787  -3.066   0.566  -0.678   1.842   1.678     0.789     2.388     2.380    7.666    2.480    4.992    1.463   0.267
 10.236789   -1.772  -3.047   0.576  -0.667   1.840   1.676     0.789     2.386     2.378    7.666    2.487    4.990    1.470   0.266
 10.243038   -1.757  -3.028   0.586  -0.655   1.839   1.674     0.788     2.385     2.376    7.666    2.496    4.988    1.478   0.266
 10.249198   -1.740  -3.008   0.596  -0.643   1.837   1.672     0.787     2.384     2.374    7.666    2.504    4.985    1.486   0.265
 10.255273   -1.723  -2.986   0.606  -0.630   1.835   1.670     0.787     2.383     2.372    7.666    2.513    4.981    1.494   0.265
 10.261263   -1.704  -2.964   0.617  -0.617   1.833   1.668     0.787     2.382     2.371    7.666    2.521    4.976    1.502   0.264
 10.267172   -1.685  -2.940   0.628  -0.602   1.830   1.666     0.786     2.381     2.370    7.667    2.529    4.972    1.510   0.264
 10.273002   -1.666  -2.916   0.639  -0.588   1.828   1.663     0.786     2.380     2.368    7.667    2.536    4.968    1.518   0.263
 10.278753   -1.646  -2.892   0.650  -0.573   1.826   1.661     0.785     2.379     2.367    7.667    2.543    4.963    1.526   0.263
 10.284431   -1.627  -2.868   0.662  -0.558   1.824   1.659     0.785     2.378     2.366    7.667    2.549    4.959    1.534   0.262
 10.290034   -1.607  -2.844   0.672  -0.543   1.822   1.656     0.784     2.377     2.365    7.667    2.555    4.955    1.542   0.262
 10.295568   -1.603  -2.839   0.676  -0.540   1.822   1.656     0.785     2.377     2.364    7.667    2.558    4.954    1.546   0.261
 10.301030   -1.608  -2.849   0.674  -0.545   1.823   1.658     0.785     2.376     2.361    7.667    2.560    4.953    1.548   0.261
